theta,intensity
5.0000,7.928
5.0400,7.934
5.0800,7.771
5.1200,7.878
5.1600,7.683
5.2000,7.457
5.2400,7.559
5.2800,7.581
5.3200,7.340
5.3600,7.241
5.4000,7.163
5.4400,7.102
5.4800,6.907
5.5200,6.720
5.5600,6.712
5.6000,6.577
5.6400,6.489
5.6800,6.487
5.7200,6.290
5.7600,6.333
5.8000,6.020
5.8400,5.769
5.8800,5.564
5.9200,5.713
5.9600,5.540
6.0000,5.277
6.0400,5.452
6.0800,5.229
6.1200,5.226
6.1600,5.344
6.2000,5.215
6.2400,5.070
6.2800,4.964
6.3200,4.832
6.3600,4.781
6.4000,4.588
6.4400,4.408
6.4800,4.703
6.5200,4.741
6.5600,4.559
6.6000,4.378
6.6400,4.475
6.6800,4.425
6.7200,4.472
6.7600,4.483
6.8000,4.402
6.8400,4.247
6.8800,4.362
6.9200,4.242
6.9600,4.439
7.0000,4.313
7.0400,4.300
7.0800,4.234
7.1200,4.280
7.1600,4.273
7.2000,4.209
7.2400,4.221
7.2800,4.007
7.3200,4.238
7.3600,4.204
7.4000,4.087
7.4400,4.192
7.4800,4.172
7.5200,4.181
7.5600,4.133
7.6000,4.102
7.6400,4.072
7.6800,3.998
7.7200,4.193
7.7600,4.138
7.8000,4.038
7.8400,4.063
7.8800,4.087
7.9200,4.029
7.9600,4.054
8.0000,3.906
8.0400,3.879
8.0800,4.042
8.1200,4.000
8.1600,4.043
8.2000,3.968
8.2400,4.100
8.2800,3.811
8.3200,3.997
8.3600,3.942
8.4000,3.845
8.4400,3.814
8.4800,4.071
8.5200,3.712
8.5600,3.860
8.6000,3.865
8.6400,3.894
8.6800,3.841
8.7200,3.820
8.7600,3.892
8.8000,3.906
8.8400,3.876
8.8800,3.804
8.9200,3.823
8.9600,3.823
9.0000,3.852
9.0400,3.801
9.0800,3.746
9.1200,3.833
9.1600,3.835
9.2000,3.873
9.2400,3.800
9.2800,3.745
9.3200,3.943
9.3600,3.753
9.4000,3.879
9.4400,3.812
9.4800,3.896
9.5200,3.738
9.5600,3.645
9.6000,3.851
9.6400,3.860
9.6800,3.810
9.7200,3.597
9.7600,3.697
9.8000,3.780
9.8400,3.812
9.8800,3.726
9.9200,3.677
9.9600,3.722
10.0000,3.729
10.0400,3.776
10.0800,3.635
10.1200,3.660
10.1600,3.581
10.2000,3.756
10.2400,3.847
10.2800,3.602
10.3200,3.669
10.3600,3.748
10.4000,3.673
10.4400,3.700
10.4800,3.850
10.5200,3.753
10.5600,3.716
10.6000,3.791
10.6400,3.589
10.6800,3.578
10.7200,3.614
10.7600,3.655
10.8000,3.647
10.8400,3.496
10.8800,3.563
10.9200,3.581
10.9600,3.661
11.0000,3.473
11.0400,3.520
11.0800,3.556
11.1200,3.541
11.1600,3.581
11.2000,3.510
11.2400,3.518
11.2800,3.548
11.3200,3.669
11.3600,3.558
11.4000,3.439
11.4400,3.482
11.4800,3.494
11.5200,3.595
11.5600,3.457
11.6000,3.617
11.6400,3.501
11.6800,3.547
11.7200,3.462
11.7600,3.587
11.8000,3.691
11.8400,3.563
11.8800,3.452
11.9200,3.494
11.9600,3.350
12.0000,3.492
12.0400,3.423
12.0800,3.398
12.1200,3.590
12.1600,3.411
12.2000,3.501
12.2400,3.475
12.2800,3.324
12.3200,3.416
12.3600,3.509
12.4000,3.515
12.4400,3.569
12.4800,3.350
12.5200,3.516
12.5600,3.268
12.6000,3.336
12.6400,3.429
12.6800,3.512
12.7200,3.355
12.7600,3.287
12.8000,3.355
12.8400,3.384
12.8800,3.357
12.9200,3.375
12.9600,3.405
13.0000,3.514
13.0400,3.295
13.0800,3.281
13.1200,3.318
13.1600,3.426
13.2000,3.267
13.2400,3.278
13.2800,3.345
13.3200,3.373
13.3600,3.203
13.4000,3.372
13.4400,3.491
13.4800,3.363
13.5200,3.216
13.5600,3.267
13.6000,3.287
13.6400,3.467
13.6800,3.312
13.7200,3.303
13.7600,3.319
13.8000,3.197
13.8400,3.364
13.8800,3.359
13.9200,3.245
13.9600,3.316
14.0000,3.301
14.0400,3.253
14.0800,3.277
14.1200,3.396
14.1600,3.175
14.2000,3.127
14.2400,3.472
14.2800,3.332
14.3200,3.344
14.3600,3.209
14.4000,3.408
14.4400,3.222
14.4800,3.189
14.5200,3.240
14.5600,3.162
14.6000,3.029
14.6400,3.229
14.6800,3.265
14.7200,3.145
14.7600,3.165
14.8000,3.317
14.8400,3.273
14.8800,3.062
14.9200,3.249
14.9600,3.009
15.0000,3.149
15.0400,3.199
15.0800,3.209
15.1200,3.165
15.1600,3.133
15.2000,3.124
15.2400,3.102
15.2800,3.138
15.3200,3.092
15.3600,3.224
15.4000,3.146
15.4400,3.230
15.4800,3.062
15.5200,3.101
15.5600,3.045
15.6000,3.147
15.6400,3.189
15.6800,3.213
15.7200,3.131
15.7600,3.062
15.8000,3.109
15.8400,3.167
15.8800,3.214
15.9200,3.112
15.9600,3.051
16.0000,3.077
16.0400,3.063
16.0800,3.205
16.1200,3.037
16.1600,3.034
16.2000,3.096
16.2400,3.102
16.2800,2.967
16.3200,3.059
16.3600,3.246
16.4000,3.181
16.4400,3.117
16.4800,3.093
16.5200,2.969
16.5600,3.047
16.6000,3.026
16.6400,3.059
16.6800,3.069
16.7200,3.052
16.7600,3.061
16.8000,2.972
16.8400,3.013
16.8800,3.083
16.9200,3.173
16.9600,3.008
17.0000,3.000
17.0400,3.051
17.0800,2.978
17.1200,2.978
17.1600,3.069
17.2000,3.034
17.2400,2.965
17.2800,2.988
17.3200,3.027
17.3600,2.991
17.4000,2.844
17.4400,2.996
17.4800,3.121
17.5200,3.016
17.5600,2.944
17.6000,3.000
17.6400,2.814
17.6800,2.931
17.7200,2.952
17.7600,2.900
17.8000,3.028
17.8400,2.881
17.8800,2.820
17.9200,3.044
17.9600,2.861
18.0000,2.965
18.0400,2.898
18.0800,2.773
18.1200,2.929
18.1600,2.843
18.2000,3.030
18.2400,2.823
18.2800,2.899
18.3200,2.884
18.3600,2.960
18.4000,2.954
18.4400,2.986
18.4800,2.791
18.5200,2.896
18.5600,2.764
18.6000,2.932
18.6400,2.978
18.6800,2.853
18.7200,2.937
18.7600,2.777
18.8000,2.797
18.8400,2.746
18.8800,2.819
18.9200,2.843
18.9600,2.791
19.0000,2.792
19.0400,2.891
19.0800,2.736
19.1200,2.692
19.1600,2.895
19.2000,2.838
19.2400,2.708
19.2800,2.660
19.3200,2.801
19.3600,2.798
19.4000,2.781
19.4400,2.802
19.4800,2.761
19.5200,2.684
19.5600,2.669
19.6000,2.745
19.6400,2.781
19.6800,2.798
19.7200,2.751
19.7600,2.633
19.8000,2.816
19.8400,2.706
19.8800,2.869
19.9200,2.680
19.9600,2.731
20.0000,2.812
20.0400,2.704
20.0800,2.783
20.1200,2.686
20.1600,2.726
20.2000,2.795
20.2400,2.755
20.2800,2.749
20.3200,2.632
20.3600,2.717
20.4000,2.733
20.4400,2.711
20.4800,2.647
20.5200,2.773
20.5600,2.648
20.6000,2.646
20.6400,2.596
20.6800,2.528
20.7200,2.690
20.7600,2.614
20.8000,2.662
20.8400,2.614
20.8800,2.665
20.9200,2.750
20.9600,2.772
21.0000,2.674
21.0400,2.601
21.0800,2.652
21.1200,2.550
21.1600,2.639
21.2000,2.640
21.2400,2.560
21.2800,2.622
21.3200,2.634
21.3600,2.745
21.4000,2.595
21.4400,2.592
21.4800,2.676
21.5200,2.589
21.5600,2.551
21.6000,2.658
21.6400,2.653
21.6800,2.544
21.7200,2.496
21.7600,2.566
21.8000,2.663
21.8400,2.701
21.8800,2.544
21.9200,2.502
21.9600,2.572
22.0000,2.556
22.0400,2.581
22.0800,2.626
22.1200,2.510
22.1600,2.668
22.2000,2.492
22.2400,2.468
22.2800,2.476
22.3200,2.509
22.3600,2.504
22.4000,2.562
22.4400,2.491
22.4800,2.546
22.5200,2.499
22.5600,2.571
22.6000,2.602
22.6400,2.479
22.6800,2.513
22.7200,2.434
22.7600,2.563
22.8000,2.490
22.8400,2.419
22.8800,2.477
22.9200,2.485
22.9600,2.514
23.0000,2.454
23.0400,2.451
23.0800,2.474
23.1200,2.485
23.1600,2.443
23.2000,2.579
23.2400,2.477
23.2800,2.665
23.3200,2.467
23.3600,2.342
23.4000,2.497
23.4400,2.461
23.4800,2.296
23.5200,2.481
23.5600,2.398
23.6000,2.522
23.6400,2.396
23.6800,2.565
23.7200,2.406
23.7600,2.445
23.8000,2.395
23.8400,2.389
23.8800,2.425
23.9200,2.431
23.9600,2.447
24.0000,2.315
24.0400,2.448
24.0800,2.475
24.1200,2.435
24.1600,2.340
24.2000,2.367
24.2400,2.408
24.2800,2.457
24.3200,2.469
24.3600,2.512
24.4000,2.447
24.4400,2.286
24.4800,2.262
24.5200,2.325
24.5600,2.318
24.6000,2.416
24.6400,2.341
24.6800,2.321
24.7200,2.313
24.7600,2.478
24.8000,2.320
24.8400,2.374
24.8800,2.409
24.9200,2.338
24.9600,2.340
25.0000,2.305
25.0400,2.395
25.0800,2.337
25.1200,2.286
25.1600,2.384
25.2000,2.245
25.2400,2.348
25.2800,2.359
25.3200,2.476
25.3600,2.470
25.4000,2.344
25.4400,2.454
25.4800,2.377
25.5200,2.484
25.5600,2.290
25.6000,2.287
25.6400,2.322
25.6800,2.326
25.7200,2.230
25.7600,2.203
25.8000,2.381
25.8400,2.296
25.8800,2.388
25.9200,2.211
25.9600,2.264
26.0000,2.220
26.0400,2.363
26.0800,2.330
26.1200,2.292
26.1600,2.285
26.2000,2.334
26.2400,2.214
26.2800,2.181
26.3200,2.318
26.3600,2.162
26.4000,2.256
26.4400,2.201
26.4800,2.133
26.5200,2.205
26.5600,2.312
26.6000,2.240
26.6400,2.134
26.6800,2.140
26.7200,2.160
26.7600,2.231
26.8000,2.163
26.8400,2.203
26.8800,2.142
26.9200,2.258
26.9600,2.284
27.0000,2.187
27.0400,2.359
27.0800,2.226
27.1200,2.303
27.1600,2.274
27.2000,2.334
27.2400,2.463
27.2800,2.311
27.3200,2.346
27.3600,2.296
27.4000,2.322
27.4400,2.298
27.4800,2.156
27.5200,2.329
27.5600,2.260
27.6000,2.331
27.6400,2.348
27.6800,2.308
27.7200,2.310
27.7600,2.368
27.8000,2.445
27.8400,2.403
27.8800,2.358
27.9200,2.408
27.9600,2.323
28.0000,2.394
28.0400,2.525
28.0800,2.612
28.1200,2.492
28.1600,2.265
28.2000,2.450
28.2400,2.487
28.2800,2.540
28.3200,2.478
28.3600,2.447
28.4000,2.484
28.4400,2.534
28.4800,2.426
28.5200,2.535
28.5600,2.423
28.6000,2.404
28.6400,2.453
28.6800,2.390
28.7200,2.312
28.7600,2.414
28.8000,2.435
28.8400,2.337
28.8800,2.362
28.9200,2.187
28.9600,2.292
29.0000,2.367
29.0400,2.301
29.0800,2.169
29.1200,2.168
29.1600,2.219
29.2000,2.156
29.2400,2.200
29.2800,2.138
29.3200,2.147
29.3600,2.180
29.4000,2.143
29.4400,2.140
29.4800,2.117
29.5200,2.260
29.5600,2.072
29.6000,2.135
29.6400,2.172
29.6800,2.088
29.7200,1.974
29.7600,2.038
29.8000,2.151
29.8400,2.052
29.8800,2.074
29.9200,1.966
29.9600,2.027
30.0000,2.009
30.0400,2.024
30.0800,1.896
30.1200,1.950
30.1600,1.962
30.2000,1.913
30.2400,1.865
30.2800,1.961
30.3200,2.060
30.3600,1.910
30.4000,1.961
30.4400,1.970
30.4800,1.915
30.5200,1.908
30.5600,1.923
30.6000,1.938
30.6400,1.697
30.6800,1.843
30.7200,1.843
30.7600,1.815
30.8000,1.837
30.8400,1.862
30.8800,1.967
30.9200,1.836
30.9600,1.798
31.0000,1.859
31.0400,1.785
31.0800,1.917
31.1200,1.785
31.1600,1.809
31.2000,1.800
31.2400,1.784
31.2800,1.804
31.3200,1.881
31.3600,1.828
31.4000,1.759
31.4400,1.833
31.4800,1.811
31.5200,1.821
31.5600,1.773
31.6000,1.802
31.6400,1.651
31.6800,1.640
31.7200,1.733
31.7600,1.708
31.8000,1.717
31.8400,1.674
31.8800,1.712
31.9200,1.707
31.9600,1.686
32.0000,1.672
32.0400,1.741
32.0800,1.687
32.1200,1.718
32.1600,1.651
32.2000,1.597
32.2400,1.659
32.2800,1.563
32.3200,1.667
32.3600,1.586
32.4000,1.727
32.4400,1.629
32.4800,1.668
32.5200,1.727
32.5600,1.647
32.6000,1.497
32.6400,1.545
32.6800,1.733
32.7200,1.757
32.7600,1.619
32.8000,1.688
32.8400,1.695
32.8800,1.597
32.9200,1.619
32.9600,1.670
33.0000,1.652
33.0400,1.730
33.0800,1.575
33.1200,1.602
33.1600,1.680
33.2000,1.626
33.2400,1.563
33.2800,1.647
33.3200,1.583
33.3600,1.466
33.4000,1.607
33.4400,1.623
33.4800,1.569
33.5200,1.559
33.5600,1.682
33.6000,1.680
33.6400,1.539
33.6800,1.494
33.7200,1.490
33.7600,1.631
33.8000,1.534
33.8400,1.627
33.8800,1.660
33.9200,1.582
33.9600,1.517
34.0000,1.468
34.0400,1.477
34.0800,1.544
34.1200,1.566
34.1600,1.614
34.2000,1.591
34.2400,1.632
34.2800,1.505
34.3200,1.575
34.3600,1.542
34.4000,1.638
34.4400,1.486
34.4800,1.531
34.5200,1.436
34.5600,1.556
34.6000,1.490
34.6400,1.502
34.6800,1.406
34.7200,1.573
34.7600,1.451
34.8000,1.453
34.8400,1.432
34.8800,1.543
34.9200,1.434
34.9600,1.491
35.0000,1.459
35.0400,1.471
35.0800,1.490
35.1200,1.523
35.1600,1.468
35.2000,1.469
35.2400,1.476
35.2800,1.427
35.3200,1.469
35.3600,1.527
35.4000,1.460
35.4400,1.459
35.4800,1.437
35.5200,1.387
35.5600,1.396
35.6000,1.415
35.6400,1.389
35.6800,1.439
35.7200,1.417
35.7600,1.383
35.8000,1.374
35.8400,1.472
35.8800,1.476
35.9200,1.383
35.9600,1.478
36.0000,1.323
36.0400,1.458
36.0800,1.448
36.1200,1.299
36.1600,1.344
36.2000,1.356
36.2400,1.415
36.2800,1.453
36.3200,1.377
36.3600,1.307
36.4000,1.405
36.4400,1.404
36.4800,1.319
36.5200,1.368
36.5600,1.420
36.6000,1.430
36.6400,1.449
36.6800,1.405
36.7200,1.384
36.7600,1.350
36.8000,1.418
36.8400,1.376
36.8800,1.414
36.9200,1.378
36.9600,1.339
37.0000,1.355
37.0400,1.396
37.0800,1.406
37.1200,1.392
37.1600,1.330
37.2000,1.319
37.2400,1.360
37.2800,1.381
37.3200,1.439
37.3600,1.473
37.4000,1.394
37.4400,1.378
37.4800,1.295
37.5200,1.428
37.5600,1.415
37.6000,1.394
37.6400,1.475
37.6800,1.429
37.7200,1.461
37.7600,1.408
37.8000,1.422
37.8400,1.442
37.8800,1.526
37.9200,1.595
37.9600,1.773
38.0000,2.064
38.0400,2.487
38.0800,3.209
38.1200,3.993
38.1600,3.963
38.2000,3.824
38.2400,3.223
38.2800,2.582
38.3200,2.289
38.3600,1.787
38.4000,1.689
38.4400,1.499
38.4800,1.484
38.5200,1.411
38.5600,1.492
38.6000,1.323
38.6400,1.405
38.6800,1.402
38.7200,1.337
38.7600,1.312
38.8000,1.325
38.8400,1.298
38.8800,1.332
38.9200,1.315
38.9600,1.225
39.0000,1.309
39.0400,1.329
39.0800,1.245
39.1200,1.284
39.1600,1.209
39.2000,1.200
39.2400,1.297
39.2800,1.235
39.3200,1.272
39.3600,1.237
39.4000,1.227
39.4400,1.204
39.4800,1.228
39.5200,1.246
39.5600,1.254
39.6000,1.208
39.6400,1.250
39.6800,1.207
39.7200,1.087
39.7600,1.168
39.8000,1.228
39.8400,1.255
39.8800,1.198
39.9200,1.235
39.9600,1.185
40.0000,1.223
40.0400,1.174
40.0800,1.143
40.1200,1.180
40.1600,1.157
40.2000,1.190
40.2400,1.292
40.2800,1.131
40.3200,1.124
40.3600,1.100
40.4000,1.162
40.4400,1.135
40.4800,1.126
40.5200,1.199
40.5600,1.093
40.6000,1.210
40.6400,1.184
40.6800,1.109
40.7200,1.166
40.7600,1.153
40.8000,1.171
40.8400,1.090
40.8800,1.194
40.9200,1.081
40.9600,1.141
41.0000,1.125
41.0400,1.174
41.0800,1.150
41.1200,1.166
41.1600,1.131
41.2000,1.133
41.2400,1.162
41.2800,1.207
41.3200,1.132
41.3600,1.255
41.4000,1.101
41.4400,1.114
41.4800,1.103
41.5200,1.109
41.5600,1.063
41.6000,1.126
41.6400,1.083
41.6800,1.091
41.7200,1.028
41.7600,1.146
41.8000,1.107
41.8400,1.078
41.8800,1.081
41.9200,1.095
41.9600,1.187
42.0000,1.102
42.0400,1.115
42.0800,1.119
42.1200,1.193
42.1600,1.072
42.2000,1.085
42.2400,1.102
42.2800,1.069
42.3200,1.145
42.3600,1.083
42.4000,1.073
42.4400,1.059
42.4800,1.077
42.5200,1.027
42.5600,1.125
42.6000,1.089
42.6400,1.107
42.6800,1.075
42.7200,1.005
42.7600,1.013
42.8000,1.064
42.8400,0.979
42.8800,1.108
42.9200,0.960
42.9600,1.076
43.0000,1.000
43.0400,1.127
43.0800,1.061
43.1200,1.035
43.1600,0.977
43.2000,1.060
43.2400,1.019
43.2800,1.016
43.3200,1.092
43.3600,1.027
43.4000,1.095
43.4400,1.012
43.4800,1.085
43.5200,0.995
43.5600,1.013
43.6000,1.061
43.6400,1.041
43.6800,0.967
43.7200,1.118
43.7600,0.986
43.8000,1.061
43.8400,1.086
43.8800,1.122
43.9200,1.092
43.9600,1.101
44.0000,1.128
44.0400,1.141
44.0800,1.198
44.1200,1.140
44.1600,1.202
44.2000,1.364
44.2400,1.441
44.2800,1.566
44.3200,1.825
44.3600,1.807
44.4000,1.820
44.4400,1.656
44.4800,1.559
44.5200,1.415
44.5600,1.189
44.6000,1.133
44.6400,1.187
44.6800,1.116
44.7200,1.052
44.7600,1.095
44.8000,0.993
44.8400,0.988
44.8800,1.011
44.9200,1.033
44.9600,1.011
45.0000,0.974
45.0400,0.972
45.0800,0.965
45.1200,0.950
45.1600,0.976
45.2000,0.944
45.2400,0.980
45.2800,0.921
45.3200,0.935
45.3600,0.977
45.4000,0.936
45.4400,1.005
45.4800,0.980
45.5200,0.929
45.5600,0.901
45.6000,1.006
45.6400,0.967
45.6800,0.907
45.7200,0.823
45.7600,0.938
45.8000,0.945
45.8400,0.921
45.8800,0.893
45.9200,0.854
45.9600,0.945
46.0000,0.933
46.0400,0.917
46.0800,0.940
46.1200,0.886
46.1600,0.919
46.2000,0.860
46.2400,0.877
46.2800,0.901
46.3200,0.869
46.3600,0.877
46.4000,0.824
46.4400,0.880
46.4800,0.855
46.5200,0.827
46.5600,0.971
46.6000,0.894
46.6400,0.906
46.6800,0.921
46.7200,0.861
46.7600,0.933
46.8000,0.890
46.8400,0.911
46.8800,0.926
46.9200,0.892
46.9600,0.837
47.0000,0.749
47.0400,0.813
47.0800,0.849
47.1200,0.840
47.1600,0.806
47.2000,0.875
47.2400,0.842
47.2800,0.810
47.3200,0.925
47.3600,0.830
47.4000,0.749
47.4400,0.818
47.4800,0.848
47.5200,0.869
47.5600,0.923
47.6000,0.829
47.6400,0.786
47.6800,0.858
47.7200,0.929
47.7600,0.878
47.8000,0.872
47.8400,0.871
47.8800,0.855
47.9200,0.792
47.9600,0.769
48.0000,0.839
48.0400,0.881
48.0800,0.852
48.1200,0.903
48.1600,0.842
48.2000,0.886
48.2400,0.901
48.2800,0.820
48.3200,0.794
48.3600,0.810
48.4000,0.795
48.4400,0.832
48.4800,0.821
48.5200,0.853
48.5600,0.799
48.6000,0.860
48.6400,0.800
48.6800,0.778
48.7200,0.810
48.7600,0.761
48.8000,0.877
48.8400,0.796
48.8800,0.782
48.9200,0.805
48.9600,0.820
49.0000,0.831
49.0400,0.843
49.0800,0.754
49.1200,0.790
49.1600,0.731
49.2000,0.756
49.2400,0.768
49.2800,0.788
49.3200,0.837
49.3600,0.813
49.4000,0.781
49.4400,0.780
49.4800,0.773
49.5200,0.766
49.5600,0.742
49.6000,0.707
49.6400,0.799
49.6800,0.805
49.7200,0.752
49.7600,0.745
49.8000,0.747
49.8400,0.813
49.8800,0.766
49.9200,0.755
49.9600,0.814
50.0000,0.712
50.0400,0.820
50.0800,0.738
50.1200,0.797
50.1600,0.802
50.2000,0.765
50.2400,0.789
50.2800,0.716
50.3200,0.792
50.3600,0.752
50.4000,0.772
50.4400,0.765
50.4800,0.811
50.5200,0.811
50.5600,0.712
50.6000,0.762
50.6400,0.770
50.6800,0.748
50.7200,0.695
50.7600,0.767
50.8000,0.777
50.8400,0.806
50.8800,0.781
50.9200,0.756
50.9600,0.747
51.0000,0.731
51.0400,0.693
51.0800,0.699
51.1200,0.725
51.1600,0.713
51.2000,0.735
51.2400,0.680
51.2800,0.707
51.3200,0.754
51.3600,0.762
51.4000,0.731
51.4400,0.775
51.4800,0.742
51.5200,0.730
51.5600,0.731
51.6000,0.734
51.6400,0.724
51.6800,0.740
51.7200,0.681
51.7600,0.726
51.8000,0.700
51.8400,0.718
51.8800,0.685
51.9200,0.674
51.9600,0.678
52.0000,0.710
52.0400,0.733
52.0800,0.682
52.1200,0.709
52.1600,0.717
52.2000,0.764
52.2400,0.720
52.2800,0.632
52.3200,0.802
52.3600,0.769
52.4000,0.642
52.4400,0.679
52.4800,0.738
52.5200,0.669
52.5600,0.644
52.6000,0.717
52.6400,0.707
52.6800,0.652
52.7200,0.679
52.7600,0.760
52.8000,0.731
52.8400,0.673
52.8800,0.656
52.9200,0.722
52.9600,0.653
53.0000,0.693
53.0400,0.637
53.0800,0.681
53.1200,0.659
53.1600,0.667
53.2000,0.698
53.2400,0.677
53.2800,0.684
53.3200,0.714
53.3600,0.717
53.4000,0.675
53.4400,0.670
53.4800,0.658
53.5200,0.726
53.5600,0.682
53.6000,0.657
53.6400,0.649
53.6800,0.713
53.7200,0.680
53.7600,0.699
53.8000,0.717
53.8400,0.668
53.8800,0.633
53.9200,0.716
53.9600,0.622
54.0000,0.624
54.0400,0.679
54.0800,0.665
54.1200,0.676
54.1600,0.682
54.2000,0.713
54.2400,0.613
54.2800,0.692
54.3200,0.643
54.3600,0.637
54.4000,0.605
54.4400,0.661
54.4800,0.660
54.5200,0.652
54.5600,0.740
54.6000,0.646
54.6400,0.669
54.6800,0.578
54.7200,0.615
54.7600,0.661
54.8000,0.585
54.8400,0.605
54.8800,0.619
54.9200,0.618
54.9600,0.658
55.0000,0.617
55.0400,0.664
55.0800,0.621
55.1200,0.608
55.1600,0.681
55.2000,0.657
55.2400,0.653
55.2800,0.623
55.3200,0.598
55.3600,0.544
55.4000,0.604
55.4400,0.613
55.4800,0.622
55.5200,0.577
55.5600,0.603
55.6000,0.600
55.6400,0.640
55.6800,0.622
55.7200,0.616
55.7600,0.639
55.8000,0.616
55.8400,0.671
55.8800,0.658
55.9200,0.633
55.9600,0.633
56.0000,0.620
56.0400,0.603
56.0800,0.615
56.1200,0.627
56.1600,0.558
56.2000,0.650
56.2400,0.557
56.2800,0.559
56.3200,0.541
56.3600,0.607
56.4000,0.587
56.4400,0.570
56.4800,0.628
56.5200,0.628
56.5600,0.613
56.6000,0.553
56.6400,0.577
56.6800,0.606
56.7200,0.597
56.7600,0.579
56.8000,0.649
56.8400,0.617
56.8800,0.602
56.9200,0.580
56.9600,0.571
57.0000,0.637
57.0400,0.567
57.0800,0.578
57.1200,0.561
57.1600,0.601
57.2000,0.605
57.2400,0.554
57.2800,0.614
57.3200,0.636
57.3600,0.605
57.4000,0.660
57.4400,0.618
57.4800,0.604
57.5200,0.558
57.5600,0.562
57.6000,0.635
57.6400,0.604
57.6800,0.569
57.7200,0.582
57.7600,0.637
57.8000,0.609
57.8400,0.583
57.8800,0.571
57.9200,0.687
57.9600,0.577
58.0000,0.508
58.0400,0.573
58.0800,0.559
58.1200,0.550
58.1600,0.606
58.2000,0.561
58.2400,0.561
58.2800,0.588
58.3200,0.601
58.3600,0.617
58.4000,0.569
58.4400,0.490
58.4800,0.568
58.5200,0.587
58.5600,0.548
58.6000,0.512
58.6400,0.606
58.6800,0.545
58.7200,0.581
58.7600,0.585
58.8000,0.555
58.8400,0.527
58.8800,0.563
58.9200,0.533
58.9600,0.525
59.0000,0.535
59.0400,0.617
59.0800,0.570
59.1200,0.562
59.1600,0.561
59.2000,0.559
59.2400,0.514
59.2800,0.548
59.3200,0.526
59.3600,0.515
59.4000,0.530
59.4400,0.538
59.4800,0.553
59.5200,0.496
59.5600,0.514
59.6000,0.516
59.6400,0.528
59.6800,0.510
59.7200,0.519
59.7600,0.521
59.8000,0.577
59.8400,0.514
59.8800,0.523
59.9200,0.495
59.9600,0.482
60.0000,0.523
60.0400,0.515
60.0800,0.553
60.1200,0.534
60.1600,0.545
60.2000,0.558
60.2400,0.565
60.2800,0.562
60.3200,0.503
60.3600,0.536
60.4000,0.486
60.4400,0.513
60.4800,0.525
60.5200,0.490
60.5600,0.579
60.6000,0.498
60.6400,0.548
60.6800,0.502
60.7200,0.555
60.7600,0.504
60.8000,0.494
60.8400,0.493
60.8800,0.505
60.9200,0.467
60.9600,0.508
61.0000,0.511
61.0400,0.485
61.0800,0.523
61.1200,0.485
61.1600,0.446
61.2000,0.486
61.2400,0.510
61.2800,0.490
61.3200,0.470
61.3600,0.477
61.4000,0.504
61.4400,0.498
61.4800,0.436
61.5200,0.498
61.5600,0.486
61.6000,0.489
61.6400,0.520
61.6800,0.428
61.7200,0.486
61.7600,0.477
61.8000,0.478
61.8400,0.517
61.8800,0.471
61.9200,0.465
61.9600,0.492
62.0000,0.458
62.0400,0.464
62.0800,0.517
62.1200,0.520
62.1600,0.501
62.2000,0.469
62.2400,0.441
62.2800,0.486
62.3200,0.453
62.3600,0.494
62.4000,0.473
