theta,intensity
5.0000,4.281
5.0400,4.312
5.0800,4.324
5.1200,4.344
5.1600,4.187
5.2000,4.326
5.2400,4.201
5.2800,4.103
5.3200,4.313
5.3600,4.277
5.4000,4.325
5.4400,4.164
5.4800,4.294
5.5200,4.277
5.5600,4.065
5.6000,4.065
5.6400,4.193
5.6800,4.161
5.7200,4.174
5.7600,4.148
5.8000,4.051
5.8400,4.136
5.8800,4.158
5.9200,4.181
5.9600,4.185
6.0000,4.093
6.0400,4.196
6.0800,4.078
6.1200,4.109
6.1600,4.131
6.2000,4.044
6.2400,4.093
6.2800,4.127
6.3200,4.102
6.3600,4.079
6.4000,3.976
6.4400,3.934
6.4800,4.004
6.5200,3.992
6.5600,4.054
6.6000,4.077
6.6400,4.033
6.6800,3.934
6.7200,3.948
6.7600,4.032
6.8000,3.997
6.8400,4.069
6.8800,4.001
6.9200,4.086
6.9600,4.045
7.0000,3.913
7.0400,3.931
7.0800,3.993
7.1200,3.947
7.1600,3.920
7.2000,3.889
7.2400,4.036
7.2800,3.933
7.3200,3.986
7.3600,3.959
7.4000,3.905
7.4400,4.003
7.4800,3.994
7.5200,3.835
7.5600,3.862
7.6000,3.840
7.6400,3.823
7.6800,3.910
7.7200,3.945
7.7600,3.986
7.8000,3.828
7.8400,3.887
7.8800,3.875
7.9200,3.720
7.9600,3.882
8.0000,3.798
8.0400,3.859
8.0800,3.835
8.1200,3.784
8.1600,3.892
8.2000,3.835
8.2400,3.821
8.2800,3.907
8.3200,3.758
8.3600,3.748
8.4000,3.842
8.4400,3.796
8.4800,3.780
8.5200,3.754
8.5600,3.835
8.6000,3.762
8.6400,3.782
8.6800,3.780
8.7200,3.659
8.7600,3.611
8.8000,3.878
8.8400,3.739
8.8800,3.674
8.9200,3.749
8.9600,3.816
9.0000,3.617
9.0400,3.684
9.0800,3.934
9.1200,3.687
9.1600,3.735
9.2000,3.781
9.2400,3.698
9.2800,3.721
9.3200,3.604
9.3600,3.807
9.4000,3.767
9.4400,3.648
9.4800,3.791
9.5200,3.815
9.5600,3.693
9.6000,3.628
9.6400,3.590
9.6800,3.652
9.7200,3.744
9.7600,3.678
9.8000,3.678
9.8400,3.692
9.8800,3.680
9.9200,3.740
9.9600,3.498
10.0000,3.550
10.0400,3.617
10.0800,3.583
10.1200,3.635
10.1600,3.595
10.2000,3.620
10.2400,3.623
10.2800,3.631
10.3200,3.630
10.3600,3.556
10.4000,3.647
10.4400,3.754
10.4800,3.570
10.5200,3.591
10.5600,3.576
10.6000,3.622
10.6400,3.632
10.6800,3.587
10.7200,3.648
10.7600,3.602
10.8000,3.524
10.8400,3.513
10.8800,3.632
10.9200,3.597
10.9600,3.605
11.0000,3.535
11.0400,3.494
11.0800,3.555
11.1200,3.576
11.1600,3.615
11.2000,3.480
11.2400,3.479
11.2800,3.589
11.3200,3.500
11.3600,3.508
11.4000,3.554
11.4400,3.537
11.4800,3.404
11.5200,3.419
11.5600,3.480
11.6000,3.424
11.6400,3.502
11.6800,3.509
11.7200,3.646
11.7600,3.353
11.8000,3.532
11.8400,3.572
11.8800,3.459
11.9200,3.392
11.9600,3.421
12.0000,3.432
12.0400,3.413
12.0800,3.443
12.1200,3.436
12.1600,3.439
12.2000,3.447
12.2400,3.425
12.2800,3.448
12.3200,3.372
12.3600,3.379
12.4000,3.578
12.4400,3.412
12.4800,3.475
12.5200,3.309
12.5600,3.332
12.6000,3.346
12.6400,3.415
12.6800,3.283
12.7200,3.374
12.7600,3.317
12.8000,3.288
12.8400,3.370
12.8800,3.452
12.9200,3.376
12.9600,3.273
13.0000,3.315
13.0400,3.337
13.0800,3.309
13.1200,3.402
13.1600,3.341
13.2000,3.318
13.2400,3.347
13.2800,3.290
13.3200,3.388
13.3600,3.380
13.4000,3.439
13.4400,3.369
13.4800,3.288
13.5200,3.265
13.5600,3.429
13.6000,3.267
13.6400,3.268
13.6800,3.280
13.7200,3.250
13.7600,3.339
13.8000,3.257
13.8400,3.330
13.8800,3.261
13.9200,3.211
13.9600,3.315
14.0000,3.176
14.0400,3.293
14.0800,3.319
14.1200,3.271
14.1600,3.267
14.2000,3.270
14.2400,3.296
14.2800,3.323
14.3200,3.260
14.3600,3.312
14.4000,3.195
14.4400,3.250
14.4800,3.137
14.5200,3.237
14.5600,3.068
14.6000,3.178
14.6400,3.266
14.6800,3.241
14.7200,3.160
14.7600,3.256
14.8000,3.196
14.8400,3.158
14.8800,3.219
14.9200,3.188
14.9600,3.130
15.0000,3.098
15.0400,3.161
15.0800,3.192
15.1200,3.182
15.1600,3.113
15.2000,3.218
15.2400,3.211
15.2800,3.124
15.3200,3.200
15.3600,3.192
15.4000,3.102
15.4400,3.215
15.4800,3.109
15.5200,3.230
15.5600,3.056
15.6000,3.232
15.6400,3.144
15.6800,3.201
15.7200,3.134
15.7600,3.035
15.8000,3.081
15.8400,3.170
15.8800,3.261
15.9200,3.170
15.9600,3.289
16.0000,3.045
16.0400,3.079
16.0800,3.003
16.1200,3.120
16.1600,3.113
16.2000,3.065
16.2400,3.072
16.2800,3.122
16.3200,3.131
16.3600,3.044
16.4000,3.117
16.4400,3.046
16.4800,3.156
16.5200,3.095
16.5600,3.118
16.6000,3.099
16.6400,3.137
16.6800,3.045
16.7200,3.146
16.7600,3.061
16.8000,3.091
16.8400,3.049
16.8800,3.147
16.9200,3.158
16.9600,2.964
17.0000,3.058
17.0400,3.058
17.0800,3.073
17.1200,3.096
17.1600,2.902
17.2000,2.941
17.2400,2.915
17.2800,2.997
17.3200,2.962
17.3600,3.058
17.4000,3.016
17.4400,2.997
17.4800,3.038
17.5200,2.990
17.5600,3.003
17.6000,2.995
17.6400,3.096
17.6800,3.064
17.7200,3.052
17.7600,2.943
17.8000,3.028
17.8400,2.966
17.8800,2.858
17.9200,2.847
17.9600,2.901
18.0000,2.878
18.0400,2.767
18.0800,2.900
18.1200,2.829
18.1600,2.876
18.2000,2.982
18.2400,2.888
18.2800,2.951
18.3200,2.895
18.3600,2.867
18.4000,2.882
18.4400,2.960
18.4800,2.911
18.5200,2.739
18.5600,2.769
18.6000,2.979
18.6400,2.870
18.6800,2.867
18.7200,2.914
18.7600,2.786
18.8000,2.804
18.8400,2.835
18.8800,2.904
18.9200,2.849
18.9600,2.800
19.0000,2.869
19.0400,2.850
19.0800,2.689
19.1200,2.797
19.1600,2.710
19.2000,2.741
19.2400,2.762
19.2800,2.788
19.3200,2.839
19.3600,2.739
19.4000,2.772
19.4400,2.878
19.4800,2.799
19.5200,2.901
19.5600,2.782
19.6000,2.705
19.6400,2.748
19.6800,2.758
19.7200,2.688
19.7600,2.701
19.8000,2.633
19.8400,2.765
19.8800,2.787
19.9200,2.855
19.9600,2.822
20.0000,2.807
20.0400,2.737
20.0800,2.593
20.1200,2.688
20.1600,2.891
20.2000,2.687
20.2400,2.713
20.2800,2.719
20.3200,2.631
20.3600,2.581
20.4000,2.748
20.4400,2.621
20.4800,2.683
20.5200,2.671
20.5600,2.627
20.6000,2.602
20.6400,2.629
20.6800,2.732
20.7200,2.647
20.7600,2.585
20.8000,2.636
20.8400,2.562
20.8800,2.619
20.9200,2.748
20.9600,2.686
21.0000,2.631
21.0400,2.710
21.0800,2.612
21.1200,2.666
21.1600,2.625
21.2000,2.572
21.2400,2.561
21.2800,2.626
21.3200,2.625
21.3600,2.625
21.4000,2.669
21.4400,2.587
21.4800,2.679
21.5200,2.602
21.5600,2.603
21.6000,2.649
21.6400,2.717
21.6800,2.737
21.7200,2.702
21.7600,2.701
21.8000,2.643
21.8400,2.610
21.8800,2.582
21.9200,2.702
21.9600,2.503
22.0000,2.569
22.0400,2.595
22.0800,2.590
22.1200,2.614
22.1600,2.595
22.2000,2.536
22.2400,2.612
22.2800,2.589
22.3200,2.629
22.3600,2.713
22.4000,2.680
22.4400,2.662
22.4800,2.625
22.5200,2.524
22.5600,2.586
22.6000,2.485
22.6400,2.501
22.6800,2.591
22.7200,2.596
22.7600,2.529
22.8000,2.537
22.8400,2.498
22.8800,2.571
22.9200,2.572
22.9600,2.498
23.0000,2.489
23.0400,2.483
23.0800,2.443
23.1200,2.493
23.1600,2.585
23.2000,2.474
23.2400,2.548
23.2800,2.504
23.3200,2.478
23.3600,2.455
23.4000,2.473
23.4400,2.495
23.4800,2.640
23.5200,2.670
23.5600,2.635
23.6000,2.603
23.6400,2.549
23.6800,2.545
23.7200,2.593
23.7600,2.454
23.8000,2.576
23.8400,2.516
23.8800,2.436
23.9200,2.462
23.9600,2.476
24.0000,2.408
24.0400,2.498
24.0800,2.466
24.1200,2.503
24.1600,2.587
24.2000,2.516
24.2400,2.486
24.2800,2.346
24.3200,2.455
24.3600,2.598
24.4000,2.348
24.4400,2.418
24.4800,2.443
24.5200,2.441
24.5600,2.407
24.6000,2.339
24.6400,2.382
24.6800,2.390
24.7200,2.490
24.7600,2.462
24.8000,2.397
24.8400,2.322
24.8800,2.448
24.9200,2.411
24.9600,2.322
25.0000,2.383
25.0400,2.376
25.0800,2.520
25.1200,2.452
25.1600,2.426
25.2000,2.434
25.2400,2.387
25.2800,2.429
25.3200,2.436
25.3600,2.321
25.4000,2.406
25.4400,2.300
25.4800,2.338
25.5200,2.527
25.5600,2.419
25.6000,2.375
25.6400,2.336
25.6800,2.388
25.7200,2.404
25.7600,2.269
25.8000,2.333
25.8400,2.372
25.8800,2.313
25.9200,2.258
25.9600,2.324
26.0000,2.323
26.0400,2.345
26.0800,2.382
26.1200,2.348
26.1600,2.334
26.2000,2.378
26.2400,2.282
26.2800,2.322
26.3200,2.301
26.3600,2.314
26.4000,2.294
26.4400,2.292
26.4800,2.368
26.5200,2.341
26.5600,2.329
26.6000,2.320
26.6400,2.367
26.6800,2.313
26.7200,2.403
26.7600,2.382
26.8000,2.479
26.8400,2.776
26.8800,3.089
26.9200,3.030
26.9600,2.946
27.0000,2.701
27.0400,2.549
27.0800,2.389
27.1200,2.218
27.1600,2.259
27.2000,2.207
27.2400,2.209
27.2800,2.264
27.3200,2.259
27.3600,2.284
27.4000,2.303
27.4400,2.205
27.4800,2.167
27.5200,2.243
27.5600,2.247
27.6000,2.195
27.6400,2.318
27.6800,2.261
27.7200,2.321
27.7600,2.272
27.8000,2.274
27.8400,2.269
27.8800,2.317
27.9200,2.331
27.9600,2.383
28.0000,2.418
28.0400,2.352
28.0800,2.368
28.1200,2.361
28.1600,2.401
28.2000,2.432
28.2400,2.369
28.2800,2.428
28.3200,2.427
28.3600,2.450
28.4000,2.469
28.4400,2.481
28.4800,2.550
28.5200,2.385
28.5600,2.437
28.6000,2.438
28.6400,2.458
28.6800,2.404
28.7200,2.527
28.7600,2.438
28.8000,2.370
28.8400,2.399
28.8800,2.404
28.9200,2.323
28.9600,2.276
29.0000,2.322
29.0400,2.322
29.0800,2.362
29.1200,2.370
29.1600,2.275
29.2000,2.282
29.2400,2.222
29.2800,2.258
29.3200,2.216
29.3600,2.209
29.4000,2.175
29.4400,2.225
29.4800,2.188
29.5200,2.104
29.5600,2.118
29.6000,2.028
29.6400,2.105
29.6800,2.134
29.7200,2.066
29.7600,2.063
29.8000,2.160
29.8400,2.169
29.8800,2.106
29.9200,2.066
29.9600,2.090
30.0000,2.084
30.0400,2.119
30.0800,2.189
30.1200,2.055
30.1600,1.994
30.2000,2.012
30.2400,2.173
30.2800,2.126
30.3200,2.084
30.3600,2.188
30.4000,2.198
30.4400,2.201
30.4800,2.092
30.5200,2.094
30.5600,2.008
30.6000,2.053
30.6400,1.984
30.6800,2.055
30.7200,1.971
30.7600,1.965
30.8000,1.908
30.8400,1.907
30.8800,2.025
30.9200,2.050
30.9600,1.876
31.0000,1.960
31.0400,1.936
31.0800,1.948
31.1200,1.923
31.1600,1.948
31.2000,1.941
31.2400,1.876
31.2800,1.937
31.3200,1.902
31.3600,1.932
31.4000,1.818
31.4400,1.836
31.4800,1.831
31.5200,1.781
31.5600,1.863
31.6000,1.932
31.6400,1.835
31.6800,1.823
31.7200,1.768
31.7600,1.808
31.8000,1.847
31.8400,1.784
31.8800,1.889
31.9200,1.892
31.9600,1.877
32.0000,1.836
32.0400,1.821
32.0800,1.773
32.1200,1.870
32.1600,1.719
32.2000,1.849
32.2400,1.824
32.2800,1.855
32.3200,1.781
32.3600,1.800
32.4000,1.936
32.4400,1.764
32.4800,1.853
32.5200,1.827
32.5600,1.748
32.6000,1.841
32.6400,1.818
32.6800,1.827
32.7200,1.791
32.7600,1.828
32.8000,1.827
32.8400,1.871
32.8800,1.895
32.9200,1.988
32.9600,2.124
33.0000,2.310
33.0400,2.442
33.0800,2.545
33.1200,2.643
33.1600,2.537
33.2000,2.510
33.2400,2.227
33.2800,2.102
33.3200,1.985
33.3600,1.824
33.4000,1.866
33.4400,1.905
33.4800,1.822
33.5200,1.763
33.5600,1.746
33.6000,1.778
33.6400,1.811
33.6800,1.698
33.7200,1.683
33.7600,1.764
33.8000,1.809
33.8400,1.642
33.8800,1.779
33.9200,1.723
33.9600,1.693
34.0000,1.693
34.0400,1.739
34.0800,1.716
34.1200,1.752
34.1600,1.680
34.2000,1.620
34.2400,1.569
34.2800,1.654
34.3200,1.617
34.3600,1.649
34.4000,1.665
34.4400,1.623
34.4800,1.658
34.5200,1.617
34.5600,1.599
34.6000,1.634
34.6400,1.590
34.6800,1.593
34.7200,1.619
34.7600,1.610
34.8000,1.601
34.8400,1.601
34.8800,1.533
34.9200,1.539
34.9600,1.569
35.0000,1.532
35.0400,1.550
35.0800,1.552
35.1200,1.560
35.1600,1.554
35.2000,1.590
35.2400,1.599
35.2800,1.497
35.3200,1.629
35.3600,1.540
35.4000,1.576
35.4400,1.554
35.4800,1.581
35.5200,1.615
35.5600,1.645
35.6000,1.549
35.6400,1.529
35.6800,1.591
35.7200,1.606
35.7600,1.571
35.8000,1.691
35.8400,1.580
35.8800,1.557
35.9200,1.539
35.9600,1.515
36.0000,1.558
36.0400,1.525
36.0800,1.548
36.1200,1.502
36.1600,1.483
36.2000,1.560
36.2400,1.533
36.2800,1.526
36.3200,1.637
36.3600,1.511
36.4000,1.548
36.4400,1.575
36.4800,1.473
36.5200,1.568
36.5600,1.512
36.6000,1.517
36.6400,1.532
36.6800,1.530
36.7200,1.550
36.7600,1.472
36.8000,1.397
36.8400,1.473
36.8800,1.535
36.9200,1.511
36.9600,1.431
37.0000,1.447
37.0400,1.514
37.0800,1.519
37.1200,1.501
37.1600,1.474
37.2000,1.542
37.2400,1.516
37.2800,1.512
37.3200,1.579
37.3600,1.491
37.4000,1.513
37.4400,1.494
37.4800,1.512
37.5200,1.525
37.5600,1.523
37.6000,1.581
37.6400,1.568
37.6800,1.582
37.7200,1.605
37.7600,1.591
37.8000,1.651
37.8400,1.677
37.8800,1.742
37.9200,1.951
37.9600,2.019
38.0000,2.039
38.0400,2.211
38.0800,2.241
38.1200,2.507
38.1600,3.146
38.2000,4.398
38.2400,5.611
38.2800,7.682
38.3200,11.946
38.3600,14.788
38.4000,13.968
38.4400,12.670
38.4800,10.921
38.5200,8.431
38.5600,6.266
38.6000,5.024
38.6400,3.871
38.6800,3.068
38.7200,2.612
38.7600,2.215
38.8000,2.080
38.8400,1.948
38.8800,1.903
38.9200,1.854
38.9600,1.849
39.0000,1.838
39.0400,1.748
39.0800,1.683
39.1200,1.691
39.1600,1.633
39.2000,1.561
39.2400,1.574
39.2800,1.489
39.3200,1.553
39.3600,1.718
39.4000,1.830
39.4400,1.815
39.4800,1.783
39.5200,1.755
39.5600,1.583
39.6000,1.538
39.6400,1.494
39.6800,1.377
39.7200,1.498
39.7600,1.443
39.8000,1.397
39.8400,1.375
39.8800,1.445
39.9200,1.376
39.9600,1.365
40.0000,1.355
40.0400,1.320
40.0800,1.393
40.1200,1.358
40.1600,1.360
40.2000,1.334
40.2400,1.297
40.2800,1.340
40.3200,1.398
40.3600,1.434
40.4000,1.405
40.4400,1.464
40.4800,1.462
40.5200,1.515
40.5600,1.396
40.6000,1.341
40.6400,1.414
40.6800,1.340
40.7200,1.293
40.7600,1.290
40.8000,1.259
40.8400,1.205
40.8800,1.260
40.9200,1.298
40.9600,1.319
41.0000,1.304
41.0400,1.256
41.0800,1.246
41.1200,1.256
41.1600,1.249
41.2000,1.254
41.2400,1.297
41.2800,1.381
41.3200,1.373
41.3600,1.317
41.4000,1.269
41.4400,1.326
41.4800,1.271
41.5200,1.303
41.5600,1.276
41.6000,1.268
41.6400,1.260
41.6800,1.224
41.7200,1.147
41.7600,1.243
41.8000,1.187
41.8400,1.262
41.8800,1.203
41.9200,1.203
41.9600,1.189
42.0000,1.232
42.0400,1.197
42.0800,1.186
42.1200,1.195
42.1600,1.211
42.2000,1.192
42.2400,1.167
42.2800,1.199
42.3200,1.148
42.3600,1.183
42.4000,1.187
42.4400,1.165
42.4800,1.179
42.5200,1.176
42.5600,1.162
42.6000,1.110
42.6400,1.124
42.6800,1.207
42.7200,1.130
42.7600,1.125
42.8000,1.177
42.8400,1.142
42.8800,1.159
42.9200,1.153
42.9600,1.179
43.0000,1.170
43.0400,1.124
43.0800,1.220
43.1200,1.155
43.1600,1.211
43.2000,1.140
43.2400,1.130
43.2800,1.115
43.3200,1.076
43.3600,1.066
43.4000,1.212
43.4400,1.140
43.4800,1.174
43.5200,1.139
43.5600,1.133
43.6000,1.102
43.6400,1.149
43.6800,1.143
43.7200,1.141
43.7600,1.169
43.8000,1.179
43.8400,1.226
43.8800,1.083
43.9200,1.114
43.9600,1.116
44.0000,1.106
44.0400,1.124
44.0800,1.133
44.1200,1.177
44.1600,1.169
44.2000,1.176
44.2400,1.259
44.2800,1.136
44.3200,1.123
44.3600,1.107
44.4000,1.116
44.4400,1.152
44.4800,1.140
44.5200,1.140
44.5600,1.074
44.6000,1.109
44.6400,1.137
44.6800,1.024
44.7200,1.078
44.7600,0.998
44.8000,1.022
44.8400,1.095
44.8800,1.051
44.9200,1.028
44.9600,0.999
45.0000,1.105
45.0400,1.035
45.0800,1.036
45.1200,1.037
45.1600,1.018
45.2000,1.008
45.2400,1.003
45.2800,1.031
45.3200,1.001
45.3600,0.996
45.4000,1.063
45.4400,0.979
45.4800,1.091
45.5200,1.052
45.5600,1.053
45.6000,0.978
45.6400,1.039
45.6800,1.023
45.7200,1.025
45.7600,1.027
45.8000,1.004
45.8400,0.987
45.8800,0.982
45.9200,1.014
45.9600,0.999
46.0000,0.961
46.0400,0.995
46.0800,1.002
46.1200,1.012
46.1600,0.935
46.2000,0.992
46.2400,0.975
46.2800,0.954
46.3200,1.044
46.3600,1.053
46.4000,1.084
46.4400,1.073
46.4800,1.007
46.5200,1.060
46.5600,1.027
46.6000,1.051
46.6400,1.102
46.6800,1.044
46.7200,0.956
46.7600,0.987
46.8000,1.063
46.8400,0.978
46.8800,0.945
46.9200,0.985
46.9600,0.892
47.0000,0.975
47.0400,0.928
47.0800,0.943
47.1200,0.963
47.1600,0.882
47.2000,0.968
47.2400,0.937
47.2800,0.938
47.3200,1.003
47.3600,0.951
47.4000,1.037
47.4400,1.135
47.4800,1.096
47.5200,1.056
47.5600,0.998
47.6000,1.001
47.6400,0.926
47.6800,0.916
47.7200,0.977
47.7600,0.959
47.8000,0.959
47.8400,0.893
47.8800,0.946
47.9200,0.964
47.9600,0.916
48.0000,0.958
48.0400,0.914
48.0800,0.892
48.1200,0.962
48.1600,0.928
48.2000,0.921
48.2400,0.863
48.2800,0.908
48.3200,0.859
48.3600,0.799
48.4000,0.864
48.4400,0.940
48.4800,0.913
48.5200,0.863
48.5600,0.899
48.6000,0.831
48.6400,0.885
48.6800,0.865
48.7200,0.810
48.7600,0.804
48.8000,0.774
48.8400,0.834
48.8800,0.832
48.9200,0.846
48.9600,0.858
49.0000,0.906
49.0400,0.924
49.0800,0.888
49.1200,0.853
49.1600,0.881
49.2000,0.876
49.2400,0.782
49.2800,0.831
49.3200,0.833
49.3600,0.915
49.4000,0.914
49.4400,0.867
49.4800,0.863
49.5200,0.891
49.5600,0.865
49.6000,0.842
49.6400,0.876
49.6800,0.914
49.7200,0.852
49.7600,0.857
49.8000,0.868
49.8400,0.885
49.8800,0.889
49.9200,0.908
49.9600,0.881
50.0000,0.894
50.0400,0.864
50.0800,0.867
50.1200,0.851
50.1600,0.861
50.2000,0.875
50.2400,0.880
50.2800,0.839
50.3200,0.868
50.3600,0.832
50.4000,0.816
50.4400,0.818
50.4800,0.836
50.5200,0.888
50.5600,0.821
50.6000,0.865
50.6400,0.861
50.6800,0.807
50.7200,0.821
50.7600,0.794
50.8000,0.855
50.8400,0.789
50.8800,0.767
50.9200,0.835
50.9600,0.795
51.0000,0.803
51.0400,0.823
51.0800,0.780
51.1200,0.838
51.1600,0.792
51.2000,0.792
51.2400,0.835
51.2800,0.800
51.3200,0.801
51.3600,0.788
51.4000,0.825
51.4400,0.814
51.4800,0.732
51.5200,0.814
51.5600,0.768
51.6000,0.791
51.6400,0.787
51.6800,0.807
51.7200,0.850
51.7600,0.770
51.8000,0.755
51.8400,0.809
51.8800,0.753
51.9200,0.804
51.9600,0.810
52.0000,0.801
52.0400,0.743
52.0800,0.783
52.1200,0.789
52.1600,0.749
52.2000,0.727
52.2400,0.763
52.2800,0.781
52.3200,0.825
52.3600,0.751
52.4000,0.783
52.4400,0.757
52.4800,0.747
52.5200,0.733
52.5600,0.807
52.6000,0.813
52.6400,0.805
52.6800,0.791
52.7200,0.723
52.7600,0.788
52.8000,0.727
52.8400,0.808
52.8800,0.705
52.9200,0.744
52.9600,0.740
53.0000,0.715
53.0400,0.702
53.0800,0.768
53.1200,0.728
53.1600,0.771
53.2000,0.759
53.2400,0.773
53.2800,0.732
53.3200,0.741
53.3600,0.722
53.4000,0.716
53.4400,0.731
53.4800,0.696
53.5200,0.754
53.5600,0.773
53.6000,0.746
53.6400,0.711
53.6800,0.727
53.7200,0.739
53.7600,0.731
53.8000,0.705
53.8400,0.725
53.8800,0.770
53.9200,0.762
53.9600,0.723
54.0000,0.741
54.0400,0.725
54.0800,0.703
54.1200,0.730
54.1600,0.681
54.2000,0.720
54.2400,0.688
54.2800,0.712
54.3200,0.726
54.3600,0.740
54.4000,0.794
54.4400,0.758
54.4800,0.714
54.5200,0.686
54.5600,0.747
54.6000,0.739
54.6400,0.745
54.6800,0.785
54.7200,0.761
54.7600,0.768
54.8000,0.739
54.8400,0.761
54.8800,0.738
54.9200,0.759
54.9600,0.815
55.0000,0.833
55.0400,0.835
55.0800,0.932
55.1200,0.987
55.1600,1.049
55.2000,1.150
55.2400,1.471
55.2800,1.692
55.3200,1.911
55.3600,1.909
55.4000,1.835
55.4400,1.713
55.4800,1.587
55.5200,1.408
55.5600,1.219
55.6000,1.097
55.6400,1.032
55.6800,0.922
55.7200,0.892
55.7600,0.821
55.8000,0.775
55.8400,0.736
55.8800,0.731
55.9200,0.755
55.9600,0.706
56.0000,0.690
56.0400,0.700
56.0800,0.731
56.1200,0.705
56.1600,0.672
56.2000,0.657
56.2400,0.677
56.2800,0.688
56.3200,0.695
56.3600,0.686
56.4000,0.702
56.4400,0.682
56.4800,0.670
56.5200,0.686
56.5600,0.671
56.6000,0.640
56.6400,0.673
56.6800,0.723
56.7200,0.710
56.7600,0.663
56.8000,0.641
56.8400,0.658
56.8800,0.705
56.9200,0.728
56.9600,0.654
57.0000,0.694
57.0400,0.660
57.0800,0.633
57.1200,0.657
57.1600,0.645
57.2000,0.617
57.2400,0.605
57.2800,0.667
57.3200,0.632
57.3600,0.686
57.4000,0.632
57.4400,0.640
57.4800,0.669
57.5200,0.602
57.5600,0.617
57.6000,0.653
57.6400,0.626
57.6800,0.640
57.7200,0.652
57.7600,0.627
57.8000,0.638
57.8400,0.672
57.8800,0.646
57.9200,0.624
57.9600,0.629
58.0000,0.648
58.0400,0.639
58.0800,0.639
58.1200,0.629
58.1600,0.624
58.2000,0.647
58.2400,0.644
58.2800,0.607
58.3200,0.638
58.3600,0.590
58.4000,0.654
58.4400,0.613
58.4800,0.568
58.5200,0.638
58.5600,0.606
58.6000,0.613
58.6400,0.605
58.6800,0.590
58.7200,0.596
58.7600,0.593
58.8000,0.570
58.8400,0.572
58.8800,0.622
58.9200,0.567
58.9600,0.570
59.0000,0.587
59.0400,0.576
59.0800,0.565
59.1200,0.615
59.1600,0.594
59.2000,0.606
59.2400,0.611
59.2800,0.554
59.3200,0.553
59.3600,0.590
59.4000,0.566
59.4400,0.615
59.4800,0.614
59.5200,0.550
59.5600,0.590
59.6000,0.568
59.6400,0.605
59.6800,0.592
59.7200,0.564
59.7600,0.560
59.8000,0.604
59.8400,0.593
59.8800,0.560
59.9200,0.592
59.9600,0.530
60.0000,0.588
60.0400,0.614
60.0800,0.609
60.1200,0.625
60.1600,0.581
60.2000,0.560
60.2400,0.602
60.2800,0.557
60.3200,0.562
60.3600,0.561
60.4000,0.570
60.4400,0.569
60.4800,0.552
60.5200,0.555
60.5600,0.529
60.6000,0.572
60.6400,0.531
60.6800,0.553
60.7200,0.519
60.7600,0.551
60.8000,0.509
60.8400,0.543
60.8800,0.588
60.9200,0.540
60.9600,0.521
61.0000,0.528
61.0400,0.563
61.0800,0.566
61.1200,0.568
61.1600,0.533
61.2000,0.568
61.2400,0.561
61.2800,0.599
61.3200,0.510
61.3600,0.536
61.4000,0.549
61.4400,0.538
61.4800,0.551
61.5200,0.566
61.5600,0.534
61.6000,0.559
61.6400,0.525
61.6800,0.546
61.7200,0.487
61.7600,0.537
61.8000,0.521
61.8400,0.527
61.8800,0.537
61.9200,0.525
61.9600,0.556
62.0000,0.539
62.0400,0.537
62.0800,0.519
62.1200,0.524
62.1600,0.574
62.2000,0.546
62.2400,0.517
62.2800,0.539
62.3200,0.532
62.3600,0.556
62.4000,0.553
