theta,intensity
5.0000,8.728
5.0400,8.604
5.0800,8.650
5.1200,8.364
5.1600,8.285
5.2000,8.405
5.2400,8.340
5.2800,8.202
5.3200,8.171
5.3600,8.142
5.4000,8.181
5.4400,8.133
5.4800,7.816
5.5200,7.819
5.5600,7.845
5.6000,7.631
5.6400,7.437
5.6800,7.501
5.7200,7.350
5.7600,7.343
5.8000,7.191
5.8400,7.010
5.8800,6.991
5.9200,6.930
5.9600,6.831
6.0000,6.766
6.0400,6.657
6.0800,6.466
6.1200,6.603
6.1600,6.517
6.2000,6.319
6.2400,6.255
6.2800,6.214
6.3200,6.053
6.3600,5.980
6.4000,5.893
6.4400,5.824
6.4800,5.776
6.5200,5.690
6.5600,5.667
6.6000,5.436
6.6400,5.519
6.6800,5.375
6.7200,5.334
6.7600,5.458
6.8000,5.374
6.8400,5.337
6.8800,5.251
6.9200,5.218
6.9600,4.954
7.0000,5.114
7.0400,5.028
7.0800,4.875
7.1200,4.914
7.1600,4.650
7.2000,4.821
7.2400,4.730
7.2800,4.717
7.3200,4.811
7.3600,4.553
7.4000,4.642
7.4400,4.507
7.4800,4.649
7.5200,4.616
7.5600,4.482
7.6000,4.329
7.6400,4.391
7.6800,4.188
7.7200,4.317
7.7600,4.327
7.8000,4.115
7.8400,4.187
7.8800,4.266
7.9200,4.274
7.9600,4.227
8.0000,4.166
8.0400,4.088
8.0800,4.240
8.1200,4.083
8.1600,4.081
8.2000,4.102
8.2400,4.006
8.2800,3.901
8.3200,3.958
8.3600,3.971
8.4000,3.969
8.4400,3.949
8.4800,3.796
8.5200,3.930
8.5600,3.912
8.6000,3.840
8.6400,3.941
8.6800,3.845
8.7200,3.830
8.7600,3.857
8.8000,3.805
8.8400,3.788
8.8800,3.732
8.9200,3.782
8.9600,3.696
9.0000,3.757
9.0400,3.756
9.0800,3.736
9.1200,3.737
9.1600,3.731
9.2000,3.739
9.2400,3.737
9.2800,3.719
9.3200,3.657
9.3600,3.714
9.4000,3.555
9.4400,3.533
9.4800,3.576
9.5200,3.631
9.5600,3.614
9.6000,3.600
9.6400,3.572
9.6800,3.610
9.7200,3.555
9.7600,3.611
9.8000,3.601
9.8400,3.644
9.8800,3.620
9.9200,3.610
9.9600,3.572
10.0000,3.532
10.0400,3.511
10.0800,3.582
10.1200,3.533
10.1600,3.657
10.2000,3.494
10.2400,3.427
10.2800,3.635
10.3200,3.582
10.3600,3.671
10.4000,3.558
10.4400,3.533
10.4800,3.454
10.5200,3.527
10.5600,3.499
10.6000,3.501
10.6400,3.467
10.6800,3.413
10.7200,3.471
10.7600,3.437
10.8000,3.411
10.8400,3.598
10.8800,3.450
10.9200,3.379
10.9600,3.444
11.0000,3.507
11.0400,3.416
11.0800,3.516
11.1200,3.507
11.1600,3.444
11.2000,3.417
11.2400,3.491
11.2800,3.408
11.3200,3.487
11.3600,3.489
11.4000,3.459
11.4400,3.398
11.4800,3.365
11.5200,3.438
11.5600,3.365
11.6000,3.368
11.6400,3.416
11.6800,3.425
11.7200,3.371
11.7600,3.396
11.8000,3.360
11.8400,3.331
11.8800,3.317
11.9200,3.321
11.9600,3.417
12.0000,3.460
12.0400,3.358
12.0800,3.352
12.1200,3.284
12.1600,3.291
12.2000,3.324
12.2400,3.316
12.2800,3.257
12.3200,3.294
12.3600,3.347
12.4000,3.235
12.4400,3.230
12.4800,3.279
12.5200,3.235
12.5600,3.309
12.6000,3.313
12.6400,3.273
12.6800,3.365
12.7200,3.302
12.7600,3.247
12.8000,3.261
12.8400,3.242
12.8800,3.340
12.9200,3.303
12.9600,3.248
13.0000,3.305
13.0400,3.247
13.0800,3.253
13.1200,3.305
13.1600,3.322
13.2000,3.273
13.2400,3.328
13.2800,3.297
13.3200,3.318
13.3600,3.234
13.4000,3.230
13.4400,3.165
13.4800,3.158
13.5200,3.269
13.5600,3.275
13.6000,3.159
13.6400,3.069
13.6800,3.124
13.7200,3.178
13.7600,3.181
13.8000,3.197
13.8400,3.205
13.8800,3.145
13.9200,3.206
13.9600,3.142
14.0000,3.082
14.0400,3.135
14.0800,3.247
14.1200,3.089
14.1600,3.076
14.2000,3.102
14.2400,3.190
14.2800,3.135
14.3200,3.173
14.3600,3.166
14.4000,3.146
14.4400,3.096
14.4800,3.263
14.5200,3.082
14.5600,3.157
14.6000,3.116
14.6400,3.098
14.6800,3.095
14.7200,3.208
14.7600,3.100
14.8000,3.164
14.8400,3.007
14.8800,2.867
14.9200,3.008
14.9600,2.994
15.0000,3.135
15.0400,3.034
15.0800,3.003
15.1200,3.108
15.1600,3.061
15.2000,3.060
15.2400,3.041
15.2800,3.113
15.3200,3.024
15.3600,3.031
15.4000,3.194
15.4400,3.028
15.4800,3.034
15.5200,3.037
15.5600,3.004
15.6000,3.033
15.6400,3.099
15.6800,3.041
15.7200,3.056
15.7600,2.853
15.8000,3.094
15.8400,3.024
15.8800,3.019
15.9200,3.124
15.9600,3.014
16.0000,2.973
16.0400,3.064
16.0800,2.978
16.1200,3.020
16.1600,3.036
16.2000,3.007
16.2400,2.992
16.2800,2.979
16.3200,2.918
16.3600,2.968
16.4000,2.938
16.4400,2.913
16.4800,2.956
16.5200,3.023
16.5600,2.972
16.6000,2.992
16.6400,3.016
16.6800,2.883
16.7200,2.954
16.7600,2.886
16.8000,2.910
16.8400,2.844
16.8800,2.917
16.9200,3.005
16.9600,2.943
17.0000,2.998
17.0400,2.883
17.0800,2.904
17.1200,2.780
17.1600,2.886
17.2000,2.971
17.2400,2.868
17.2800,2.896
17.3200,2.902
17.3600,2.961
17.4000,2.896
17.4400,2.804
17.4800,2.820
17.5200,2.924
17.5600,2.723
17.6000,2.806
17.6400,2.840
17.6800,2.847
17.7200,2.833
17.7600,2.832
17.8000,2.939
17.8400,2.721
17.8800,2.780
17.9200,2.737
17.9600,2.731
18.0000,2.895
18.0400,2.714
18.0800,2.698
18.1200,2.740
18.1600,2.729
18.2000,2.849
18.2400,2.747
18.2800,2.864
18.3200,2.826
18.3600,2.697
18.4000,2.675
18.4400,2.805
18.4800,2.833
18.5200,2.785
18.5600,2.813
18.6000,2.808
18.6400,2.807
18.6800,2.751
18.7200,2.806
18.7600,2.673
18.8000,2.737
18.8400,2.709
18.8800,2.765
18.9200,2.781
18.9600,2.694
19.0000,2.739
19.0400,2.794
19.0800,2.691
19.1200,2.631
19.1600,2.711
19.2000,2.705
19.2400,2.658
19.2800,2.661
19.3200,2.752
19.3600,2.705
19.4000,2.616
19.4400,2.639
19.4800,2.714
19.5200,2.667
19.5600,2.631
19.6000,2.729
19.6400,2.712
19.6800,2.575
19.7200,2.589
19.7600,2.665
19.8000,2.638
19.8400,2.560
19.8800,2.554
19.9200,2.559
19.9600,2.613
20.0000,2.590
20.0400,2.651
20.0800,2.620
20.1200,2.613
20.1600,2.599
20.2000,2.585
20.2400,2.666
20.2800,2.643
20.3200,2.615
20.3600,2.577
20.4000,2.578
20.4400,2.631
20.4800,2.536
20.5200,2.531
20.5600,2.660
20.6000,2.596
20.6400,2.536
20.6800,2.545
20.7200,2.566
20.7600,2.519
20.8000,2.492
20.8400,2.544
20.8800,2.610
20.9200,2.512
20.9600,2.536
21.0000,2.523
21.0400,2.486
21.0800,2.482
21.1200,2.514
21.1600,2.573
21.2000,2.574
21.2400,2.551
21.2800,2.480
21.3200,2.514
21.3600,2.597
21.4000,2.508
21.4400,2.480
21.4800,2.420
21.5200,2.517
21.5600,2.497
21.6000,2.417
21.6400,2.480
21.6800,2.510
21.7200,2.426
21.7600,2.452
21.8000,2.452
21.8400,2.466
21.8800,2.515
21.9200,2.502
21.9600,2.409
22.0000,2.475
22.0400,2.448
22.0800,2.432
22.1200,2.484
22.1600,2.473
22.2000,2.457
22.2400,2.420
22.2800,2.432
22.3200,2.497
22.3600,2.376
22.4000,2.409
22.4400,2.380
22.4800,2.440
22.5200,2.442
22.5600,2.394
22.6000,2.412
22.6400,2.310
22.6800,2.328
22.7200,2.439
22.7600,2.454
22.8000,2.467
22.8400,2.300
22.8800,2.440
22.9200,2.304
22.9600,2.403
23.0000,2.473
23.0400,2.376
23.0800,2.287
23.1200,2.375
23.1600,2.346
23.2000,2.331
23.2400,2.270
23.2800,2.392
23.3200,2.409
23.3600,2.397
23.4000,2.322
23.4400,2.344
23.4800,2.357
23.5200,2.337
23.5600,2.460
23.6000,2.382
23.6400,2.415
23.6800,2.337
23.7200,2.423
23.7600,2.313
23.8000,2.311
23.8400,2.341
23.8800,2.235
23.9200,2.293
23.9600,2.328
24.0000,2.291
24.0400,2.272
24.0800,2.303
24.1200,2.303
24.1600,2.344
24.2000,2.244
24.2400,2.288
24.2800,2.273
24.3200,2.280
24.3600,2.320
24.4000,2.281
24.4400,2.281
24.4800,2.328
24.5200,2.274
24.5600,2.252
24.6000,2.207
24.6400,2.325
24.6800,2.278
24.7200,2.327
24.7600,2.303
24.8000,2.208
24.8400,2.322
24.8800,2.242
24.9200,2.245
24.9600,2.341
25.0000,2.287
25.0400,2.311
25.0800,2.231
25.1200,2.241
25.1600,2.366
25.2000,2.307
25.2400,2.271
25.2800,2.315
25.3200,2.215
25.3600,2.204
25.4000,2.270
25.4400,2.220
25.4800,2.193
25.5200,2.165
25.5600,2.215
25.6000,2.324
25.6400,2.171
25.6800,2.271
25.7200,2.227
25.7600,2.247
25.8000,2.192
25.8400,2.313
25.8800,2.268
25.9200,2.156
25.9600,2.180
26.0000,2.191
26.0400,2.181
26.0800,2.216
26.1200,2.126
26.1600,2.088
26.2000,2.267
26.2400,2.145
26.2800,2.193
26.3200,2.208
26.3600,2.129
26.4000,2.102
26.4400,2.090
26.4800,2.107
26.5200,2.140
26.5600,2.084
26.6000,2.100
26.6400,2.160
26.6800,2.110
26.7200,2.174
26.7600,2.154
26.8000,2.109
26.8400,2.154
26.8800,2.131
26.9200,2.037
26.9600,2.184
27.0000,2.047
27.0400,2.121
27.0800,2.151
27.1200,2.211
27.1600,2.140
27.2000,2.092
27.2400,2.186
27.2800,2.096
27.3200,2.092
27.3600,2.148
27.4000,2.225
27.4400,2.088
27.4800,2.139
27.5200,2.160
27.5600,2.282
27.6000,2.101
27.6400,2.222
27.6800,2.203
27.7200,2.257
27.7600,2.213
27.8000,2.091
27.8400,2.150
27.8800,2.104
27.9200,2.260
27.9600,2.246
28.0000,2.231
28.0400,2.276
28.0800,2.313
28.1200,2.325
28.1600,2.264
28.2000,2.277
28.2400,2.342
28.2800,2.165
28.3200,2.286
28.3600,2.241
28.4000,2.408
28.4400,2.385
28.4800,2.286
28.5200,2.414
28.5600,2.330
28.6000,2.343
28.6400,2.328
28.6800,2.413
28.7200,2.342
28.7600,2.181
28.8000,2.279
28.8400,2.236
28.8800,2.201
28.9200,2.236
28.9600,2.170
29.0000,2.271
29.0400,2.174
29.0800,2.142
29.1200,2.108
29.1600,2.070
29.2000,2.134
29.2400,2.063
29.2800,2.097
29.3200,2.003
29.3600,2.123
29.4000,2.011
29.4400,2.020
29.4800,2.019
29.5200,2.022
29.5600,2.022
29.6000,1.989
29.6400,1.946
29.6800,1.995
29.7200,1.855
29.7600,2.029
29.8000,2.015
29.8400,2.006
29.8800,1.931
29.9200,1.905
29.9600,1.918
30.0000,1.862
30.0400,1.906
30.0800,1.945
30.1200,1.867
30.1600,1.844
30.2000,1.878
30.2400,1.840
30.2800,1.820
30.3200,1.921
30.3600,1.880
30.4000,1.884
30.4400,1.798
30.4800,1.834
30.5200,1.798
30.5600,1.801
30.6000,1.802
30.6400,1.766
30.6800,1.851
30.7200,1.852
30.7600,1.819
30.8000,1.782
30.8400,1.794
30.8800,1.756
30.9200,1.732
30.9600,1.776
31.0000,1.690
31.0400,1.707
31.0800,1.694
31.1200,1.750
31.1600,1.707
31.2000,1.740
31.2400,1.765
31.2800,1.750
31.3200,1.759
31.3600,1.786
31.4000,1.739
31.4400,1.729
31.4800,1.705
31.5200,1.682
31.5600,1.651
31.6000,1.653
31.6400,1.722
31.6800,1.694
31.7200,1.755
31.7600,1.661
31.8000,1.680
31.8400,1.770
31.8800,1.729
31.9200,1.678
31.9600,1.646
32.0000,1.653
32.0400,1.668
32.0800,1.549
32.1200,1.642
32.1600,1.644
32.2000,1.645
32.2400,1.627
32.2800,1.613
32.3200,1.590
32.3600,1.770
32.4000,1.662
32.4400,1.764
32.4800,1.589
32.5200,1.604
32.5600,1.630
32.6000,1.544
32.6400,1.634
32.6800,1.628
32.7200,1.633
32.7600,1.589
32.8000,1.552
32.8400,1.680
32.8800,1.626
32.9200,1.584
32.9600,1.623
33.0000,1.536
33.0400,1.558
33.0800,1.539
33.1200,1.496
33.1600,1.571
33.2000,1.544
33.2400,1.563
33.2800,1.533
33.3200,1.561
33.3600,1.587
33.4000,1.526
33.4400,1.541
33.4800,1.557
33.5200,1.539
33.5600,1.592
33.6000,1.523
33.6400,1.489
33.6800,1.513
33.7200,1.582
33.7600,1.536
33.8000,1.487
33.8400,1.611
33.8800,1.466
33.9200,1.492
33.9600,1.544
34.0000,1.527
34.0400,1.527
34.0800,1.559
34.1200,1.530
34.1600,1.490
34.2000,1.515
34.2400,1.476
34.2800,1.504
34.3200,1.498
34.3600,1.478
34.4000,1.427
34.4400,1.502
34.4800,1.512
34.5200,1.542
34.5600,1.452
34.6000,1.486
34.6400,1.493
34.6800,1.464
34.7200,1.359
34.7600,1.371
34.8000,1.522
34.8400,1.397
34.8800,1.441
34.9200,1.399
34.9600,1.449
35.0000,1.406
35.0400,1.417
35.0800,1.448
35.1200,1.396
35.1600,1.437
35.2000,1.478
35.2400,1.479
35.2800,1.407
35.3200,1.423
35.3600,1.420
35.4000,1.455
35.4400,1.445
35.4800,1.470
35.5200,1.472
35.5600,1.447
35.6000,1.442
35.6400,1.396
35.6800,1.376
35.7200,1.369
35.7600,1.425
35.8000,1.306
35.8400,1.399
35.8800,1.395
35.9200,1.379
35.9600,1.445
36.0000,1.435
36.0400,1.315
36.0800,1.345
36.1200,1.352
36.1600,1.368
36.2000,1.394
36.2400,1.366
36.2800,1.405
36.3200,1.418
36.3600,1.426
36.4000,1.384
36.4400,1.436
36.4800,1.421
36.5200,1.362
36.5600,1.382
36.6000,1.427
36.6400,1.383
36.6800,1.439
36.7200,1.392
36.7600,1.353
36.8000,1.349
36.8400,1.407
36.8800,1.389
36.9200,1.365
36.9600,1.381
37.0000,1.323
37.0400,1.403
37.0800,1.374
37.1200,1.407
37.1600,1.337
37.2000,1.336
37.2400,1.438
37.2800,1.378
37.3200,1.398
37.3600,1.411
37.4000,1.429
37.4400,1.351
37.4800,1.434
37.5200,1.481
37.5600,1.426
37.6000,1.422
37.6400,1.480
37.6800,1.471
37.7200,1.486
37.7600,1.528
37.8000,1.611
37.8400,1.679
37.8800,1.837
37.9200,2.104
37.9600,2.411
38.0000,2.854
38.0400,3.847
38.0800,5.184
38.1200,6.012
38.1600,5.820
38.2000,5.121
38.2400,4.416
38.2800,3.356
38.3200,2.759
38.3600,2.271
38.4000,1.994
38.4400,1.729
38.4800,1.661
38.5200,1.595
38.5600,1.492
38.6000,1.428
38.6400,1.393
38.6800,1.480
38.7200,1.405
38.7600,1.323
38.8000,1.369
38.8400,1.357
38.8800,1.327
38.9200,1.315
38.9600,1.277
39.0000,1.217
39.0400,1.214
39.0800,1.260
39.1200,1.291
39.1600,1.290
39.2000,1.233
39.2400,1.185
39.2800,1.207
39.3200,1.224
39.3600,1.228
39.4000,1.226
39.4400,1.203
39.4800,1.163
39.5200,1.177
39.5600,1.179
39.6000,1.204
39.6400,1.200
39.6800,1.289
39.7200,1.166
39.7600,1.186
39.8000,1.163
39.8400,1.152
39.8800,1.171
39.9200,1.191
39.9600,1.222
40.0000,1.170
40.0400,1.204
40.0800,1.167
40.1200,1.169
40.1600,1.140
40.2000,1.168
40.2400,1.142
40.2800,1.171
40.3200,1.219
40.3600,1.161
40.4000,1.186
40.4400,1.173
40.4800,1.145
40.5200,1.194
40.5600,1.132
40.6000,1.139
40.6400,1.195
40.6800,1.176
40.7200,1.138
40.7600,1.111
40.8000,1.173
40.8400,1.158
40.8800,1.126
40.9200,1.156
40.9600,1.126
41.0000,1.106
41.0400,1.085
41.0800,1.129
41.1200,1.145
41.1600,1.116
41.2000,1.112
41.2400,1.112
41.2800,1.101
41.3200,1.095
41.3600,1.094
41.4000,1.154
41.4400,1.158
41.4800,1.133
41.5200,1.124
41.5600,1.083
41.6000,1.127
41.6400,1.092
41.6800,1.063
41.7200,1.068
41.7600,1.180
41.8000,1.134
41.8400,1.091
41.8800,1.128
41.9200,1.105
41.9600,1.041
42.0000,1.100
42.0400,1.034
42.0800,1.099
42.1200,1.108
42.1600,1.087
42.2000,1.172
42.2400,1.119
42.2800,1.142
42.3200,1.131
42.3600,1.117
42.4000,1.073
42.4400,1.092
42.4800,1.126
42.5200,1.079
42.5600,1.110
42.6000,1.106
42.6400,1.125
42.6800,1.090
42.7200,1.117
42.7600,1.092
42.8000,1.115
42.8400,1.192
42.8800,1.184
42.9200,1.172
42.9600,1.254
43.0000,1.383
43.0400,1.498
43.0800,1.572
43.1200,1.762
43.1600,2.267
43.2000,2.888
43.2400,3.759
43.2800,4.267
43.3200,4.092
43.3600,3.623
43.4000,3.223
43.4400,2.606
43.4800,2.038
43.5200,1.706
43.5600,1.477
43.6000,1.440
43.6400,1.349
43.6800,1.214
43.7200,1.245
43.7600,1.240
43.8000,1.214
43.8400,1.236
43.8800,1.242
43.9200,1.200
43.9600,1.213
44.0000,1.261
44.0400,1.358
44.0800,1.362
44.1200,1.554
44.1600,1.656
44.2000,1.819
44.2400,2.092
44.2800,2.338
44.3200,2.385
44.3600,2.344
44.4000,2.194
44.4400,1.993
44.4800,1.751
44.5200,1.594
44.5600,1.459
44.6000,1.360
44.6400,1.203
44.6800,1.183
44.7200,1.165
44.7600,1.093
44.8000,1.106
44.8400,1.046
44.8800,0.996
44.9200,1.025
44.9600,1.073
45.0000,1.061
45.0400,0.945
45.0800,0.986
45.1200,0.967
45.1600,0.959
45.2000,0.959
45.2400,0.965
45.2800,0.991
45.3200,1.016
45.3600,0.957
45.4000,0.961
45.4400,0.978
45.4800,0.892
45.5200,0.905
45.5600,0.915
45.6000,0.944
45.6400,0.908
45.6800,0.971
45.7200,0.951
45.7600,0.926
45.8000,0.954
45.8400,0.946
45.8800,0.881
45.9200,0.881
45.9600,0.882
46.0000,0.902
46.0400,0.798
46.0800,0.836
46.1200,0.909
46.1600,0.876
46.2000,0.936
46.2400,0.867
46.2800,0.829
46.3200,0.856
46.3600,0.899
46.4000,0.901
46.4400,0.917
46.4800,0.888
46.5200,0.877
46.5600,0.863
46.6000,0.876
46.6400,0.862
46.6800,0.876
46.7200,0.832
46.7600,0.881
46.8000,0.900
46.8400,0.877
46.8800,0.891
46.9200,0.878
46.9600,0.822
47.0000,0.848
47.0400,0.867
47.0800,0.800
47.1200,0.846
47.1600,0.860
47.2000,0.862
47.2400,0.916
47.2800,0.818
47.3200,0.822
47.3600,0.869
47.4000,0.845
47.4400,0.883
47.4800,0.877
47.5200,0.871
47.5600,0.787
47.6000,0.836
47.6400,0.792
47.6800,0.786
47.7200,0.800
47.7600,0.883
47.8000,0.806
47.8400,0.858
47.8800,0.835
47.9200,0.828
47.9600,0.808
48.0000,0.813
48.0400,0.844
48.0800,0.792
48.1200,0.794
48.1600,0.825
48.2000,0.801
48.2400,0.839
48.2800,0.812
48.3200,0.833
48.3600,0.828
48.4000,0.788
48.4400,0.789
48.4800,0.801
48.5200,0.813
48.5600,0.825
48.6000,0.834
48.6400,0.777
48.6800,0.801
48.7200,0.778
48.7600,0.777
48.8000,0.799
48.8400,0.798
48.8800,0.785
48.9200,0.768
48.9600,0.816
49.0000,0.772
49.0400,0.829
49.0800,0.742
49.1200,0.785
49.1600,0.805
49.2000,0.788
49.2400,0.782
49.2800,0.813
49.3200,0.837
49.3600,0.804
49.4000,0.783
49.4400,0.833
49.4800,0.789
49.5200,0.799
49.5600,0.769
49.6000,0.755
49.6400,0.864
49.6800,0.790
49.7200,0.783
49.7600,0.794
49.8000,0.790
49.8400,0.831
49.8800,0.815
49.9200,0.843
49.9600,0.851
50.0000,0.848
50.0400,0.865
50.0800,0.896
50.1200,0.904
50.1600,0.934
50.2000,1.041
50.2400,1.147
50.2800,1.249
50.3200,1.416
50.3600,1.527
50.4000,1.580
50.4400,1.659
50.4800,1.536
50.5200,1.499
50.5600,1.384
50.6000,1.212
50.6400,1.087
50.6800,1.097
50.7200,0.986
50.7600,0.898
50.8000,0.873
50.8400,0.860
50.8800,0.847
50.9200,0.844
50.9600,0.818
51.0000,0.792
51.0400,0.802
51.0800,0.773
51.1200,0.785
51.1600,0.739
51.2000,0.801
51.2400,0.756
51.2800,0.776
51.3200,0.778
51.3600,0.703
51.4000,0.715
51.4400,0.758
51.4800,0.677
51.5200,0.737
51.5600,0.727
51.6000,0.707
51.6400,0.742
51.6800,0.748
51.7200,0.686
51.7600,0.655
51.8000,0.722
51.8400,0.689
51.8800,0.720
51.9200,0.700
51.9600,0.707
52.0000,0.755
52.0400,0.693
52.0800,0.733
52.1200,0.680
52.1600,0.695
52.2000,0.653
52.2400,0.708
52.2800,0.719
52.3200,0.679
52.3600,0.712
52.4000,0.708
52.4400,0.739
52.4800,0.709
52.5200,0.688
52.5600,0.692
52.6000,0.709
52.6400,0.684
52.6800,0.712
52.7200,0.640
52.7600,0.687
52.8000,0.675
52.8400,0.690
52.8800,0.671
52.9200,0.716
52.9600,0.614
53.0000,0.720
53.0400,0.679
53.0800,0.685
53.1200,0.698
53.1600,0.691
53.2000,0.663
53.2400,0.676
53.2800,0.627
53.3200,0.685
53.3600,0.642
53.4000,0.633
53.4400,0.642
53.4800,0.686
53.5200,0.636
53.5600,0.670
53.6000,0.644
53.6400,0.659
53.6800,0.677
53.7200,0.651
53.7600,0.660
53.8000,0.669
53.8400,0.595
53.8800,0.665
53.9200,0.654
53.9600,0.651
54.0000,0.694
54.0400,0.671
54.0800,0.656
54.1200,0.628
54.1600,0.662
54.2000,0.632
54.2400,0.648
54.2800,0.644
54.3200,0.652
54.3600,0.615
54.4000,0.603
54.4400,0.650
54.4800,0.594
54.5200,0.570
54.5600,0.612
54.6000,0.644
54.6400,0.641
54.6800,0.646
54.7200,0.609
54.7600,0.673
54.8000,0.648
54.8400,0.562
54.8800,0.606
54.9200,0.641
54.9600,0.602
55.0000,0.616
55.0400,0.642
55.0800,0.628
55.1200,0.611
55.1600,0.618
55.2000,0.629
55.2400,0.653
55.2800,0.622
55.3200,0.588
55.3600,0.598
55.4000,0.636
55.4400,0.650
55.4800,0.599
55.5200,0.623
55.5600,0.566
55.6000,0.601
55.6400,0.624
55.6800,0.668
55.7200,0.600
55.7600,0.572
55.8000,0.597
55.8400,0.638
55.8800,0.583
55.9200,0.554
55.9600,0.652
56.0000,0.580
56.0400,0.578
56.0800,0.592
56.1200,0.603
56.1600,0.599
56.2000,0.622
56.2400,0.612
56.2800,0.626
56.3200,0.604
56.3600,0.565
56.4000,0.580
56.4400,0.584
56.4800,0.557
56.5200,0.556
56.5600,0.608
56.6000,0.628
56.6400,0.625
56.6800,0.584
56.7200,0.592
56.7600,0.596
56.8000,0.571
56.8400,0.547
56.8800,0.562
56.9200,0.592
56.9600,0.633
57.0000,0.558
57.0400,0.592
57.0800,0.616
57.1200,0.578
57.1600,0.567
57.2000,0.574
57.2400,0.545
57.2800,0.532
57.3200,0.575
57.3600,0.541
57.4000,0.580
57.4400,0.611
57.4800,0.589
57.5200,0.548
57.5600,0.573
57.6000,0.587
57.6400,0.561
57.6800,0.570
57.7200,0.547
57.7600,0.528
57.8000,0.589
57.8400,0.569
57.8800,0.609
57.9200,0.577
57.9600,0.526
58.0000,0.564
58.0400,0.581
58.0800,0.532
58.1200,0.572
58.1600,0.561
58.2000,0.549
58.2400,0.561
58.2800,0.547
58.3200,0.565
58.3600,0.584
58.4000,0.585
58.4400,0.574
58.4800,0.497
58.5200,0.527
58.5600,0.515
58.6000,0.571
58.6400,0.531
58.6800,0.555
58.7200,0.562
58.7600,0.542
58.8000,0.568
58.8400,0.566
58.8800,0.545
58.9200,0.559
58.9600,0.536
59.0000,0.533
59.0400,0.515
59.0800,0.565
59.1200,0.514
59.1600,0.554
59.2000,0.583
59.2400,0.493
59.2800,0.511
59.3200,0.531
59.3600,0.518
59.4000,0.521
59.4400,0.513
59.4800,0.551
59.5200,0.519
59.5600,0.485
59.6000,0.560
59.6400,0.526
59.6800,0.511
59.7200,0.511
59.7600,0.541
59.8000,0.489
59.8400,0.517
59.8800,0.528
59.9200,0.561
59.9600,0.511
60.0000,0.511
60.0400,0.583
60.0800,0.496
60.1200,0.515
60.1600,0.471
60.2000,0.464
60.2400,0.505
60.2800,0.532
60.3200,0.508
60.3600,0.476
60.4000,0.442
60.4400,0.524
60.4800,0.533
60.5200,0.502
60.5600,0.493
60.6000,0.503
60.6400,0.495
60.6800,0.525
60.7200,0.513
60.7600,0.525
60.8000,0.457
60.8400,0.507
60.8800,0.513
60.9200,0.498
60.9600,0.473
61.0000,0.471
61.0400,0.493
61.0800,0.511
61.1200,0.509
61.1600,0.537
61.2000,0.532
61.2400,0.479
61.2800,0.492
61.3200,0.474
61.3600,0.481
61.4000,0.485
61.4400,0.538
61.4800,0.486
61.5200,0.442
61.5600,0.466
61.6000,0.499
61.6400,0.487
61.6800,0.481
61.7200,0.473
61.7600,0.478
61.8000,0.496
61.8400,0.452
61.8800,0.446
61.9200,0.448
61.9600,0.507
62.0000,0.466
62.0400,0.462
62.0800,0.459
62.1200,0.488
62.1600,0.460
62.2000,0.494
62.2400,0.457
62.2800,0.497
62.3200,0.477
62.3600,0.472
62.4000,0.443
