theta,intensity
5.0000,2.409
5.0400,2.353
5.0800,2.416
5.1200,2.373
5.1600,2.324
5.2000,2.367
5.2400,2.304
5.2800,2.327
5.3200,2.342
5.3600,2.322
5.4000,2.264
5.4400,2.292
5.4800,2.288
5.5200,2.209
5.5600,2.297
5.6000,2.315
5.6400,2.284
5.6800,2.134
5.7200,2.211
5.7600,2.154
5.8000,2.152
5.8400,2.147
5.8800,2.154
5.9200,2.144
5.9600,2.140
6.0000,2.075
6.0400,2.146
6.0800,2.153
6.1200,2.118
6.1600,2.026
6.2000,2.045
6.2400,2.039
6.2800,2.035
6.3200,2.021
6.3600,2.006
6.4000,1.968
6.4400,2.012
6.4800,1.989
6.5200,1.946
6.5600,1.942
6.6000,1.906
6.6400,1.942
6.6800,1.926
6.7200,1.879
6.7600,1.879
6.8000,1.803
6.8400,1.835
6.8800,1.786
6.9200,1.844
6.9600,1.793
7.0000,1.803
7.0400,1.783
7.0800,1.822
7.1200,1.823
7.1600,1.779
7.2000,1.699
7.2400,1.682
7.2800,1.772
7.3200,1.700
7.3600,1.643
7.4000,1.674
7.4400,1.643
7.4800,1.655
7.5200,1.689
7.5600,1.668
7.6000,1.694
7.6400,1.656
7.6800,1.607
7.7200,1.559
7.7600,1.636
7.8000,1.606
7.8400,1.597
7.8800,1.584
7.9200,1.587
7.9600,1.551
8.0000,1.555
8.0400,1.544
8.0800,1.559
8.1200,1.544
8.1600,1.523
8.2000,1.574
8.2400,1.479
8.2800,1.438
8.3200,1.521
8.3600,1.497
8.4000,1.474
8.4400,1.462
8.4800,1.505
8.5200,1.426
8.5600,1.446
8.6000,1.495
8.6400,1.446
8.6800,1.457
8.7200,1.413
8.7600,1.452
8.8000,1.429
8.8400,1.456
8.8800,1.442
8.9200,1.417
8.9600,1.420
9.0000,1.409
9.0400,1.389
9.0800,1.392
9.1200,1.386
9.1600,1.403
9.2000,1.346
9.2400,1.367
9.2800,1.415
9.3200,1.401
9.3600,1.401
9.4000,1.421
9.4400,1.356
9.4800,1.338
9.5200,1.370
9.5600,1.320
9.6000,1.323
9.6400,1.372
9.6800,1.377
9.7200,1.331
9.7600,1.334
9.8000,1.310
9.8400,1.319
9.8800,1.345
9.9200,1.358
9.9600,1.333
10.0000,1.327
10.0400,1.362
10.0800,1.392
10.1200,1.333
10.1600,1.319
10.2000,1.327
10.2400,1.295
10.2800,1.350
10.3200,1.286
10.3600,1.330
10.4000,1.332
10.4400,1.320
10.4800,1.321
10.5200,1.322
10.5600,1.341
10.6000,1.237
10.6400,1.293
10.6800,1.290
10.7200,1.312
10.7600,1.288
10.8000,1.348
10.8400,1.350
10.8800,1.276
10.9200,1.275
10.9600,1.310
11.0000,1.266
11.0400,1.293
11.0800,1.291
11.1200,1.308
11.1600,1.313
11.2000,1.291
11.2400,1.267
11.2800,1.233
11.3200,1.307
11.3600,1.267
11.4000,1.295
11.4400,1.290
11.4800,1.267
11.5200,1.278
11.5600,1.301
11.6000,1.238
11.6400,1.203
11.6800,1.301
11.7200,1.318
11.7600,1.294
11.8000,1.292
11.8400,1.238
11.8800,1.263
11.9200,1.246
11.9600,1.297
12.0000,1.302
12.0400,1.254
12.0800,1.264
12.1200,1.256
12.1600,1.241
12.2000,1.280
12.2400,1.266
12.2800,1.255
12.3200,1.253
12.3600,1.281
12.4000,1.223
12.4400,1.301
12.4800,1.229
12.5200,1.313
12.5600,1.248
12.6000,1.267
12.6400,1.244
12.6800,1.244
12.7200,1.247
12.7600,1.248
12.8000,1.214
12.8400,1.244
12.8800,1.190
12.9200,1.181
12.9600,1.247
13.0000,1.289
13.0400,1.216
13.0800,1.267
13.1200,1.252
13.1600,1.264
13.2000,1.234
13.2400,1.239
13.2800,1.207
13.3200,1.222
13.3600,1.200
13.4000,1.186
13.4400,1.236
13.4800,1.221
13.5200,1.224
13.5600,1.248
13.6000,1.246
13.6400,1.222
13.6800,1.242
13.7200,1.235
13.7600,1.170
13.8000,1.227
13.8400,1.184
13.8800,1.188
13.9200,1.216
13.9600,1.208
14.0000,1.192
14.0400,1.251
14.0800,1.257
14.1200,1.152
14.1600,1.193
14.2000,1.216
14.2400,1.163
14.2800,1.171
14.3200,1.151
14.3600,1.176
14.4000,1.186
14.4400,1.192
14.4800,1.188
14.5200,1.200
14.5600,1.186
14.6000,1.195
14.6400,1.151
14.6800,1.191
14.7200,1.190
14.7600,1.165
14.8000,1.207
14.8400,1.167
14.8800,1.217
14.9200,1.210
14.9600,1.164
15.0000,1.169
15.0400,1.142
15.0800,1.140
15.1200,1.164
15.1600,1.179
15.2000,1.214
15.2400,1.177
15.2800,1.139
15.3200,1.166
15.3600,1.191
15.4000,1.146
15.4400,1.190
15.4800,1.062
15.5200,1.140
15.5600,1.127
15.6000,1.125
15.6400,1.147
15.6800,1.188
15.7200,1.126
15.7600,1.170
15.8000,1.183
15.8400,1.172
15.8800,1.175
15.9200,1.122
15.9600,1.198
16.0000,1.157
16.0400,1.146
16.0800,1.086
16.1200,1.207
16.1600,1.104
16.2000,1.118
16.2400,1.176
16.2800,1.172
16.3200,1.149
16.3600,1.077
16.4000,1.154
16.4400,1.076
16.4800,1.163
16.5200,1.154
16.5600,1.100
16.6000,1.108
16.6400,1.113
16.6800,1.139
16.7200,1.119
16.7600,1.163
16.8000,1.137
16.8400,1.139
16.8800,1.103
16.9200,1.137
16.9600,1.125
17.0000,1.139
17.0400,1.099
17.0800,1.132
17.1200,1.154
17.1600,1.105
17.2000,1.130
17.2400,1.096
17.2800,1.057
17.3200,1.105
17.3600,1.140
17.4000,1.118
17.4400,1.145
17.4800,1.096
17.5200,1.112
17.5600,1.094
17.6000,1.081
17.6400,1.081
17.6800,1.126
17.7200,1.154
17.7600,1.142
17.8000,1.098
17.8400,1.106
17.8800,1.124
17.9200,1.103
17.9600,1.122
18.0000,1.114
18.0400,1.160
18.0800,1.093
18.1200,1.073
18.1600,1.127
18.2000,1.095
18.2400,1.117
18.2800,1.065
18.3200,1.079
18.3600,1.078
18.4000,1.104
18.4400,1.106
18.4800,1.123
18.5200,1.120
18.5600,1.118
18.6000,1.077
18.6400,1.095
18.6800,1.087
18.7200,1.095
18.7600,1.105
18.8000,1.104
18.8400,1.091
18.8800,1.077
18.9200,1.081
18.9600,1.033
19.0000,1.059
19.0400,1.092
19.0800,1.113
19.1200,1.129
19.1600,1.088
19.2000,1.065
19.2400,1.111
19.2800,1.051
19.3200,1.089
19.3600,1.074
19.4000,1.093
19.4400,1.071
19.4800,1.054
19.5200,1.057
19.5600,1.088
19.6000,1.087
19.6400,1.092
19.6800,1.070
19.7200,1.047
19.7600,1.069
19.8000,1.096
19.8400,1.096
19.8800,1.085
19.9200,1.052
19.9600,1.053
20.0000,1.050
20.0400,1.064
20.0800,1.115
20.1200,1.126
20.1600,1.045
20.2000,1.088
20.2400,1.035
20.2800,1.026
20.3200,1.053
20.3600,1.052
20.4000,1.054
20.4400,1.085
20.4800,1.080
20.5200,1.040
20.5600,1.053
20.6000,1.078
20.6400,1.038
20.6800,1.059
20.7200,1.071
20.7600,1.089
20.8000,1.066
20.8400,1.053
20.8800,1.061
20.9200,1.040
20.9600,1.041
21.0000,1.012
21.0400,1.037
21.0800,1.010
21.1200,1.049
21.1600,1.026
21.2000,1.046
21.2400,1.006
21.2800,0.997
21.3200,1.055
21.3600,1.011
21.4000,1.009
21.4400,0.981
21.4800,1.038
21.5200,1.028
21.5600,1.000
21.6000,0.990
21.6400,0.985
21.6800,1.019
21.7200,0.924
21.7600,1.016
21.8000,1.024
21.8400,1.032
21.8800,1.015
21.9200,0.973
21.9600,1.008
22.0000,0.981
22.0400,1.019
22.0800,0.979
22.1200,0.980
22.1600,0.997
22.2000,0.973
22.2400,0.966
22.2800,0.962
22.3200,0.996
22.3600,0.947
22.4000,0.953
22.4400,0.932
22.4800,0.994
22.5200,0.928
22.5600,0.905
22.6000,0.900
22.6400,0.956
22.6800,0.921
22.7200,0.928
22.7600,0.955
22.8000,0.964
22.8400,0.929
22.8800,0.961
22.9200,0.941
22.9600,0.944
23.0000,0.938
23.0400,0.902
23.0800,0.983
23.1200,0.977
23.1600,0.915
23.2000,0.898
23.2400,0.896
23.2800,0.914
23.3200,0.938
23.3600,0.895
23.4000,0.906
23.4400,0.913
23.4800,0.905
23.5200,0.902
23.5600,0.917
23.6000,0.936
23.6400,0.861
23.6800,0.878
23.7200,0.877
23.7600,0.895
23.8000,0.862
23.8400,0.865
23.8800,0.902
23.9200,0.890
23.9600,0.837
24.0000,0.927
24.0400,0.867
24.0800,0.891
24.1200,0.909
24.1600,0.898
24.2000,0.858
24.2400,0.888
24.2800,0.846
24.3200,0.826
24.3600,0.852
24.4000,0.867
24.4400,0.844
24.4800,0.870
24.5200,0.877
24.5600,0.807
24.6000,0.824
24.6400,0.783
24.6800,0.843
24.7200,0.818
24.7600,0.825
24.8000,0.836
24.8400,0.855
24.8800,0.820
24.9200,0.802
24.9600,0.818
25.0000,0.822
25.0400,0.799
25.0800,0.819
25.1200,0.836
25.1600,0.851
25.2000,0.835
25.2400,0.804
25.2800,0.815
25.3200,0.819
25.3600,0.798
25.4000,0.794
25.4400,0.781
25.4800,0.801
25.5200,0.780
25.5600,0.791
25.6000,0.824
25.6400,0.772
25.6800,0.794
25.7200,0.784
25.7600,0.780
25.8000,0.771
25.8400,0.787
25.8800,0.818
25.9200,0.740
25.9600,0.778
26.0000,0.828
26.0400,0.770
26.0800,0.794
26.1200,0.771
26.1600,0.764
26.2000,0.772
26.2400,0.780
26.2800,0.766
26.3200,0.733
26.3600,0.738
26.4000,0.758
26.4400,0.802
26.4800,0.771
26.5200,0.728
26.5600,0.778
26.6000,0.770
26.6400,0.727
26.6800,0.707
26.7200,0.749
26.7600,0.742
26.8000,0.709
26.8400,0.730
26.8800,0.753
26.9200,0.731
26.9600,0.723
27.0000,0.742
27.0400,0.718
27.0800,0.714
27.1200,0.741
27.1600,0.722
27.2000,0.739
27.2400,0.800
27.2800,0.753
27.3200,0.731
27.3600,0.723
27.4000,0.709
27.4400,0.746
27.4800,0.700
27.5200,0.695
27.5600,0.723
27.6000,0.694
27.6400,0.671
27.6800,0.692
27.7200,0.736
27.7600,0.738
27.8000,0.698
27.8400,0.667
27.8800,0.672
27.9200,0.704
27.9600,0.693
28.0000,0.698
28.0400,0.696
28.0800,0.707
28.1200,0.645
28.1600,0.648
28.2000,0.703
28.2400,0.716
28.2800,0.696
28.3200,0.730
28.3600,0.671
28.4000,0.672
28.4400,0.675
28.4800,0.650
28.5200,0.667
28.5600,0.674
28.6000,0.666
28.6400,0.653
28.6800,0.692
28.7200,0.661
28.7600,0.655
28.8000,0.673
28.8400,0.602
28.8800,0.656
28.9200,0.671
28.9600,0.642
29.0000,0.682
29.0400,0.649
29.0800,0.627
29.1200,0.639
29.1600,0.629
29.2000,0.650
29.2400,0.644
29.2800,0.652
29.3200,0.653
29.3600,0.642
29.4000,0.661
29.4400,0.648
29.4800,0.664
29.5200,0.643
29.5600,0.657
29.6000,0.620
29.6400,0.602
29.6800,0.620
29.7200,0.668
29.7600,0.638
29.8000,0.624
29.8400,0.571
29.8800,0.626
29.9200,0.648
29.9600,0.591
30.0000,0.624
30.0400,0.595
30.0800,0.632
30.1200,0.639
30.1600,0.596
30.2000,0.616
30.2400,0.624
30.2800,0.565
30.3200,0.593
30.3600,0.597
30.4000,0.630
30.4400,0.604
30.4800,0.599
30.5200,0.613
30.5600,0.635
30.6000,0.621
30.6400,0.597
30.6800,0.587
30.7200,0.597
30.7600,0.601
30.8000,0.588
30.8400,0.581
30.8800,0.607
30.9200,0.609
30.9600,0.587
31.0000,0.579
31.0400,0.572
31.0800,0.592
31.1200,0.626
31.1600,0.567
31.2000,0.612
31.2400,0.578
31.2800,0.600
31.3200,0.624
31.3600,0.571
31.4000,0.599
31.4400,0.591
31.4800,0.604
31.5200,0.567
31.5600,0.608
31.6000,0.583
31.6400,0.592
31.6800,0.571
31.7200,0.593
31.7600,0.551
31.8000,0.575
31.8400,0.587
31.8800,0.590
31.9200,0.569
31.9600,0.555
32.0000,0.562
32.0400,0.566
32.0800,0.555
32.1200,0.576
32.1600,0.556
32.2000,0.590
32.2400,0.512
32.2800,0.547
32.3200,0.558
32.3600,0.568
32.4000,0.534
32.4400,0.581
32.4800,0.538
32.5200,0.536
32.5600,0.537
32.6000,0.532
32.6400,0.545
32.6800,0.552
32.7200,0.539
32.7600,0.533
32.8000,0.522
32.8400,0.542
32.8800,0.502
32.9200,0.565
32.9600,0.524
33.0000,0.524
33.0400,0.518
33.0800,0.547
33.1200,0.491
33.1600,0.540
33.2000,0.545
33.2400,0.529
33.2800,0.540
33.3200,0.566
33.3600,0.506
33.4000,0.509
33.4400,0.467
33.4800,0.520
33.5200,0.563
33.5600,0.547
33.6000,0.509
33.6400,0.516
33.6800,0.527
33.7200,0.525
33.7600,0.517
33.8000,0.493
33.8400,0.518
33.8800,0.495
33.9200,0.499
33.9600,0.504
34.0000,0.526
34.0400,0.501
34.0800,0.477
34.1200,0.493
34.1600,0.533
34.2000,0.469
34.2400,0.482
34.2800,0.460
34.3200,0.502
34.3600,0.446
34.4000,0.494
34.4400,0.495
34.4800,0.516
34.5200,0.493
34.5600,0.504
34.6000,0.479
34.6400,0.484
34.6800,0.519
34.7200,0.492
34.7600,0.493
34.8000,0.468
34.8400,0.500
34.8800,0.463
34.9200,0.489
34.9600,0.493
35.0000,0.511
35.0400,0.489
35.0800,0.453
35.1200,0.449
35.1600,0.477
35.2000,0.472
35.2400,0.509
35.2800,0.489
35.3200,0.486
35.3600,0.473
35.4000,0.470
35.4400,0.485
35.4800,0.494
35.5200,0.484
35.5600,0.482
35.6000,0.451
35.6400,0.478
35.6800,0.464
35.7200,0.471
35.7600,0.484
35.8000,0.471
35.8400,0.474
35.8800,0.448
35.9200,0.472
35.9600,0.474
36.0000,0.469
36.0400,0.464
36.0800,0.492
36.1200,0.471
36.1600,0.485
36.2000,0.474
36.2400,0.491
36.2800,0.482
36.3200,0.494
36.3600,0.488
36.4000,0.471
36.4400,0.474
36.4800,0.476
36.5200,0.450
36.5600,0.481
36.6000,0.480
36.6400,0.465
36.6800,0.456
36.7200,0.481
36.7600,0.473
36.8000,0.458
36.8400,0.466
36.8800,0.480
36.9200,0.462
36.9600,0.504
37.0000,0.498
37.0400,0.439
37.0800,0.465
37.1200,0.524
37.1600,0.494
37.2000,0.478
37.2400,0.485
37.2800,0.533
37.3200,0.510
37.3600,0.494
37.4000,0.487
37.4400,0.536
37.4800,0.512
37.5200,0.540
37.5600,0.556
37.6000,0.555
37.6400,0.598
37.6800,0.642
37.7200,0.647
37.7600,0.723
37.8000,0.701
37.8400,0.857
37.8800,0.971
37.9200,1.223
37.9600,1.643
38.0000,2.334
38.0400,3.920
38.0800,6.662
38.1200,9.368
38.1600,10.261
38.2000,9.388
38.2400,7.702
38.2800,5.558
38.3200,3.614
38.3600,2.271
38.4000,1.596
38.4400,1.225
38.4800,0.963
38.5200,0.804
38.5600,0.725
38.6000,0.731
38.6400,0.622
38.6800,0.576
38.7200,0.580
38.7600,0.550
38.8000,0.537
38.8400,0.505
38.8800,0.512
38.9200,0.511
38.9600,0.455
39.0000,0.460
39.0400,0.489
39.0800,0.468
39.1200,0.449
39.1600,0.458
39.2000,0.474
39.2400,0.484
39.2800,0.481
39.3200,0.432
39.3600,0.445
39.4000,0.426
39.4400,0.439
39.4800,0.428
39.5200,0.429
39.5600,0.434
39.6000,0.429
39.6400,0.399
39.6800,0.414
39.7200,0.399
39.7600,0.416
39.8000,0.388
39.8400,0.424
39.8800,0.406
39.9200,0.402
39.9600,0.405
40.0000,0.383
40.0400,0.406
40.0800,0.400
40.1200,0.398
40.1600,0.405
40.2000,0.444
40.2400,0.412
40.2800,0.396
40.3200,0.388
40.3600,0.392
40.4000,0.403
40.4400,0.386
40.4800,0.359
40.5200,0.389
40.5600,0.381
40.6000,0.405
40.6400,0.374
40.6800,0.341
40.7200,0.386
40.7600,0.363
40.8000,0.353
40.8400,0.365
40.8800,0.380
40.9200,0.380
40.9600,0.368
41.0000,0.354
41.0400,0.395
41.0800,0.365
41.1200,0.372
41.1600,0.363
41.2000,0.364
41.2400,0.372
41.2800,0.365
41.3200,0.376
41.3600,0.365
41.4000,0.353
41.4400,0.380
41.4800,0.356
41.5200,0.376
41.5600,0.364
41.6000,0.358
41.6400,0.372
41.6800,0.365
41.7200,0.353
41.7600,0.344
41.8000,0.378
41.8400,0.351
41.8800,0.346
41.9200,0.363
41.9600,0.357
42.0000,0.379
42.0400,0.401
42.0800,0.367
42.1200,0.360
42.1600,0.371
42.2000,0.368
42.2400,0.351
42.2800,0.347
42.3200,0.351
42.3600,0.358
42.4000,0.328
42.4400,0.358
42.4800,0.361
42.5200,0.354
42.5600,0.348
42.6000,0.375
42.6400,0.367
42.6800,0.358
42.7200,0.379
42.7600,0.372
42.8000,0.372
42.8400,0.335
42.8800,0.343
42.9200,0.355
42.9600,0.393
43.0000,0.379
43.0400,0.372
43.0800,0.375
43.1200,0.348
43.1600,0.385
43.2000,0.377
43.2400,0.356
43.2800,0.363
43.3200,0.369
43.3600,0.363
43.4000,0.384
43.4400,0.413
43.4800,0.396
43.5200,0.396
43.5600,0.394
43.6000,0.417
43.6400,0.434
43.6800,0.445
43.7200,0.449
43.7600,0.434
43.8000,0.456
43.8400,0.524
43.8800,0.535
43.9200,0.576
43.9600,0.614
44.0000,0.723
44.0400,0.798
44.0800,0.925
44.1200,1.172
44.1600,1.453
44.2000,1.928
44.2400,2.626
44.2800,3.617
44.3200,4.170
44.3600,4.294
44.4000,3.814
44.4400,3.213
44.4800,2.606
44.5200,1.959
44.5600,1.520
44.6000,1.147
44.6400,0.886
44.6800,0.736
44.7200,0.650
44.7600,0.571
44.8000,0.567
44.8400,0.488
44.8800,0.454
44.9200,0.426
44.9600,0.405
45.0000,0.395
45.0400,0.394
45.0800,0.360
45.1200,0.369
45.1600,0.349
45.2000,0.338
45.2400,0.342
45.2800,0.354
45.3200,0.347
45.3600,0.357
45.4000,0.331
45.4400,0.335
45.4800,0.300
45.5200,0.313
45.5600,0.341
45.6000,0.338
45.6400,0.323
45.6800,0.316
45.7200,0.308
45.7600,0.301
45.8000,0.301
45.8400,0.304
45.8800,0.331
45.9200,0.316
45.9600,0.311
46.0000,0.290
46.0400,0.303
46.0800,0.304
46.1200,0.310
46.1600,0.314
46.2000,0.294
46.2400,0.304
46.2800,0.291
46.3200,0.278
46.3600,0.281
46.4000,0.298
46.4400,0.278
46.4800,0.290
46.5200,0.271
46.5600,0.270
46.6000,0.293
46.6400,0.265
46.6800,0.295
46.7200,0.284
46.7600,0.284
46.8000,0.293
46.8400,0.293
46.8800,0.260
46.9200,0.254
46.9600,0.281
47.0000,0.263
47.0400,0.258
47.0800,0.283
47.1200,0.271
47.1600,0.261
47.2000,0.287
47.2400,0.265
47.2800,0.278
47.3200,0.261
47.3600,0.260
47.4000,0.271
47.4400,0.255
47.4800,0.286
47.5200,0.278
47.5600,0.265
47.6000,0.272
47.6400,0.262
47.6800,0.281
47.7200,0.269
47.7600,0.259
47.8000,0.256
47.8400,0.250
47.8800,0.272
47.9200,0.281
47.9600,0.264
48.0000,0.262
48.0400,0.265
48.0800,0.278
48.1200,0.262
48.1600,0.239
48.2000,0.251
48.2400,0.249
48.2800,0.260
48.3200,0.265
48.3600,0.262
48.4000,0.264
48.4400,0.254
48.4800,0.235
48.5200,0.254
48.5600,0.237
48.6000,0.249
48.6400,0.247
48.6800,0.252
48.7200,0.247
48.7600,0.254
48.8000,0.258
48.8400,0.258
48.8800,0.245
48.9200,0.255
48.9600,0.249
49.0000,0.250
49.0400,0.256
49.0800,0.264
49.1200,0.241
49.1600,0.249
49.2000,0.277
49.2400,0.245
49.2800,0.258
49.3200,0.246
49.3600,0.248
49.4000,0.232
49.4400,0.254
49.4800,0.232
49.5200,0.243
49.5600,0.237
49.6000,0.258
49.6400,0.249
49.6800,0.251
49.7200,0.260
49.7600,0.234
49.8000,0.247
49.8400,0.253
49.8800,0.234
49.9200,0.245
49.9600,0.236
50.0000,0.201
50.0400,0.239
50.0800,0.239
50.1200,0.234
50.1600,0.227
50.2000,0.237
50.2400,0.239
50.2800,0.238
50.3200,0.220
50.3600,0.228
50.4000,0.233
50.4400,0.234
50.4800,0.223
50.5200,0.225
50.5600,0.232
50.6000,0.241
50.6400,0.238
50.6800,0.228
50.7200,0.230
50.7600,0.237
50.8000,0.231
50.8400,0.235
50.8800,0.236
50.9200,0.226
50.9600,0.235
51.0000,0.238
51.0400,0.226
51.0800,0.237
51.1200,0.216
51.1600,0.245
51.2000,0.217
51.2400,0.217
51.2800,0.217
51.3200,0.234
51.3600,0.241
51.4000,0.231
51.4400,0.224
51.4800,0.208
51.5200,0.213
51.5600,0.228
51.6000,0.217
51.6400,0.224
51.6800,0.224
51.7200,0.222
51.7600,0.223
51.8000,0.210
51.8400,0.230
51.8800,0.234
51.9200,0.238
51.9600,0.212
52.0000,0.229
52.0400,0.204
52.0800,0.223
52.1200,0.220
52.1600,0.239
52.2000,0.199
52.2400,0.230
52.2800,0.228
52.3200,0.205
52.3600,0.236
52.4000,0.214
52.4400,0.195
52.4800,0.227
52.5200,0.211
52.5600,0.227
52.6000,0.206
52.6400,0.219
52.6800,0.217
52.7200,0.222
52.7600,0.228
52.8000,0.205
52.8400,0.229
52.8800,0.197
52.9200,0.203
52.9600,0.206
53.0000,0.229
53.0400,0.221
53.0800,0.212
53.1200,0.208
53.1600,0.231
53.2000,0.236
53.2400,0.210
53.2800,0.209
53.3200,0.229
53.3600,0.210
53.4000,0.217
53.4400,0.191
53.4800,0.221
53.5200,0.209
53.5600,0.215
53.6000,0.186
53.6400,0.217
53.6800,0.208
53.7200,0.214
53.7600,0.218
53.8000,0.214
53.8400,0.218
53.8800,0.205
53.9200,0.197
53.9600,0.197
54.0000,0.210
54.0400,0.196
54.0800,0.199
54.1200,0.196
54.1600,0.209
54.2000,0.224
54.2400,0.190
54.2800,0.211
54.3200,0.200
54.3600,0.197
54.4000,0.187
54.4400,0.206
54.4800,0.194
54.5200,0.201
54.5600,0.203
54.6000,0.227
54.6400,0.197
54.6800,0.202
54.7200,0.202
54.7600,0.199
54.8000,0.209
54.8400,0.186
54.8800,0.197
54.9200,0.206
54.9600,0.209
55.0000,0.205
55.0400,0.211
55.0800,0.186
55.1200,0.177
55.1600,0.180
55.2000,0.194
55.2400,0.207
55.2800,0.198
55.3200,0.204
55.3600,0.185
55.4000,0.212
55.4400,0.205
55.4800,0.202
55.5200,0.197
55.5600,0.177
55.6000,0.211
55.6400,0.185
55.6800,0.195
55.7200,0.181
55.7600,0.175
55.8000,0.171
55.8400,0.178
55.8800,0.190
55.9200,0.197
55.9600,0.194
56.0000,0.192
56.0400,0.192
56.0800,0.194
56.1200,0.185
56.1600,0.199
56.2000,0.208
56.2400,0.211
56.2800,0.195
56.3200,0.193
56.3600,0.175
56.4000,0.189
56.4400,0.180
56.4800,0.175
56.5200,0.192
56.5600,0.185
56.6000,0.215
56.6400,0.189
56.6800,0.200
56.7200,0.201
56.7600,0.189
56.8000,0.193
56.8400,0.195
56.8800,0.187
56.9200,0.193
56.9600,0.216
57.0000,0.189
57.0400,0.186
57.0800,0.181
57.1200,0.186
57.1600,0.178
57.2000,0.177
57.2400,0.190
57.2800,0.179
57.3200,0.177
57.3600,0.173
57.4000,0.183
57.4400,0.171
57.4800,0.187
57.5200,0.185
57.5600,0.186
57.6000,0.184
57.6400,0.168
57.6800,0.182
57.7200,0.179
57.7600,0.184
57.8000,0.174
57.8400,0.187
57.8800,0.180
57.9200,0.176
57.9600,0.175
58.0000,0.171
58.0400,0.176
58.0800,0.190
58.1200,0.166
58.1600,0.162
58.2000,0.177
58.2400,0.191
58.2800,0.182
58.3200,0.179
58.3600,0.176
58.4000,0.195
58.4400,0.163
58.4800,0.169
58.5200,0.189
58.5600,0.181
58.6000,0.179
58.6400,0.180
58.6800,0.179
58.7200,0.187
58.7600,0.192
58.8000,0.173
58.8400,0.182
58.8800,0.168
58.9200,0.188
58.9600,0.176
59.0000,0.192
59.0400,0.187
59.0800,0.194
59.1200,0.180
59.1600,0.200
59.2000,0.185
59.2400,0.181
59.2800,0.169
59.3200,0.175
59.3600,0.174
59.4000,0.184
59.4400,0.181
59.4800,0.176
59.5200,0.170
59.5600,0.206
59.6000,0.158
59.6400,0.176
59.6800,0.184
59.7200,0.182
59.7600,0.182
59.8000,0.187
59.8400,0.161
59.8800,0.192
59.9200,0.162
59.9600,0.173
60.0000,0.195
60.0400,0.178
60.0800,0.164
60.1200,0.163
60.1600,0.158
60.2000,0.174
60.2400,0.186
60.2800,0.183
60.3200,0.176
60.3600,0.165
60.4000,0.166
60.4400,0.178
60.4800,0.172
60.5200,0.168
60.5600,0.172
60.6000,0.180
60.6400,0.172
60.6800,0.190
60.7200,0.190
60.7600,0.186
60.8000,0.193
60.8400,0.174
60.8800,0.179
60.9200,0.175
60.9600,0.187
61.0000,0.166
61.0400,0.154
61.0800,0.171
61.1200,0.188
61.1600,0.170
61.2000,0.174
61.2400,0.189
61.2800,0.180
61.3200,0.158
61.3600,0.175
61.4000,0.187
61.4400,0.173
61.4800,0.193
61.5200,0.190
61.5600,0.182
61.6000,0.180
61.6400,0.187
61.6800,0.186
61.7200,0.169
61.7600,0.168
61.8000,0.171
61.8400,0.167
61.8800,0.193
61.9200,0.187
61.9600,0.186
62.0000,0.180
62.0400,0.184
62.0800,0.192
62.1200,0.183
62.1600,0.173
62.2000,0.185
62.2400,0.166
62.2800,0.170
62.3200,0.179
62.3600,0.180
62.4000,0.181
