theta,intensity
5.0000,5.244
5.0400,5.133
5.0800,5.107
5.1200,5.038
5.1600,5.047
5.2000,5.126
5.2400,5.053
5.2800,5.074
5.3200,4.889
5.3600,4.831
5.4000,4.856
5.4400,4.859
5.4800,4.786
5.5200,4.908
5.5600,4.807
5.6000,4.782
5.6400,4.796
5.6800,4.631
5.7200,4.559
5.7600,4.638
5.8000,4.494
5.8400,4.367
5.8800,4.484
5.9200,4.273
5.9600,4.305
6.0000,4.288
6.0400,4.286
6.0800,4.265
6.1200,4.227
6.1600,4.253
6.2000,4.199
6.2400,4.221
6.2800,4.221
6.3200,4.226
6.3600,4.113
6.4000,4.171
6.4400,4.019
6.4800,4.028
6.5200,4.179
6.5600,3.980
6.6000,4.059
6.6400,4.030
6.6800,4.064
6.7200,4.012
6.7600,4.058
6.8000,4.081
6.8400,4.059
6.8800,4.072
6.9200,3.979
6.9600,3.927
7.0000,3.931
7.0400,3.959
7.0800,4.024
7.1200,4.122
7.1600,3.985
7.2000,4.049
7.2400,3.914
7.2800,3.869
7.3200,3.912
7.3600,3.850
7.4000,3.918
7.4400,3.904
7.4800,4.103
7.5200,3.868
7.5600,3.845
7.6000,3.973
7.6400,3.850
7.6800,3.829
7.7200,3.924
7.7600,3.848
7.8000,3.833
7.8400,3.863
7.8800,3.830
7.9200,3.801
7.9600,3.806
8.0000,3.777
8.0400,3.740
8.0800,3.695
8.1200,3.874
8.1600,3.782
8.2000,3.743
8.2400,3.878
8.2800,3.773
8.3200,3.915
8.3600,3.819
8.4000,3.789
8.4400,3.628
8.4800,3.813
8.5200,3.780
8.5600,3.890
8.6000,3.632
8.6400,3.733
8.6800,3.787
8.7200,3.751
8.7600,3.724
8.8000,3.753
8.8400,3.649
8.8800,3.674
8.9200,3.715
8.9600,3.752
9.0000,3.706
9.0400,3.889
9.0800,3.733
9.1200,3.714
9.1600,3.583
9.2000,3.657
9.2400,3.682
9.2800,3.590
9.3200,3.715
9.3600,3.661
9.4000,3.725
9.4400,3.746
9.4800,3.643
9.5200,3.641
9.5600,3.692
9.6000,3.605
9.6400,3.718
9.6800,3.719
9.7200,3.639
9.7600,3.714
9.8000,3.582
9.8400,3.658
9.8800,3.709
9.9200,3.603
9.9600,3.660
10.0000,3.648
10.0400,3.763
10.0800,3.689
10.1200,3.593
10.1600,3.571
10.2000,3.525
10.2400,3.657
10.2800,3.603
10.3200,3.572
10.3600,3.597
10.4000,3.561
10.4400,3.457
10.4800,3.480
10.5200,3.559
10.5600,3.571
10.6000,3.603
10.6400,3.591
10.6800,3.635
10.7200,3.593
10.7600,3.400
10.8000,3.471
10.8400,3.452
10.8800,3.506
10.9200,3.587
10.9600,3.485
11.0000,3.490
11.0400,3.526
11.0800,3.358
11.1200,3.410
11.1600,3.362
11.2000,3.528
11.2400,3.488
11.2800,3.481
11.3200,3.518
11.3600,3.472
11.4000,3.399
11.4400,3.440
11.4800,3.444
11.5200,3.460
11.5600,3.480
11.6000,3.536
11.6400,3.320
11.6800,3.545
11.7200,3.363
11.7600,3.411
11.8000,3.469
11.8400,3.405
11.8800,3.456
11.9200,3.358
11.9600,3.440
12.0000,3.449
12.0400,3.517
12.0800,3.336
12.1200,3.385
12.1600,3.489
12.2000,3.293
12.2400,3.307
12.2800,3.409
12.3200,3.360
12.3600,3.425
12.4000,3.340
12.4400,3.219
12.4800,3.440
12.5200,3.368
12.5600,3.245
12.6000,3.398
12.6400,3.324
12.6800,3.365
12.7200,3.337
12.7600,3.346
12.8000,3.348
12.8400,3.344
12.8800,3.430
12.9200,3.464
12.9600,3.323
13.0000,3.320
13.0400,3.276
13.0800,3.349
13.1200,3.304
13.1600,3.318
13.2000,3.330
13.2400,3.206
13.2800,3.205
13.3200,3.326
13.3600,3.216
13.4000,3.298
13.4400,3.195
13.4800,3.213
13.5200,3.309
13.5600,3.248
13.6000,3.305
13.6400,3.262
13.6800,3.291
13.7200,3.277
13.7600,3.218
13.8000,3.160
13.8400,3.180
13.8800,3.162
13.9200,3.318
13.9600,3.317
14.0000,3.197
14.0400,3.371
14.0800,3.237
14.1200,3.233
14.1600,3.202
14.2000,3.247
14.2400,3.167
14.2800,3.182
14.3200,3.161
14.3600,3.165
14.4000,3.218
14.4400,3.216
14.4800,3.177
14.5200,3.234
14.5600,3.090
14.6000,3.251
14.6400,3.201
14.6800,3.332
14.7200,3.168
14.7600,3.273
14.8000,3.136
14.8400,3.073
14.8800,3.155
14.9200,3.234
14.9600,3.187
15.0000,3.118
15.0400,3.224
15.0800,3.216
15.1200,3.127
15.1600,3.087
15.2000,3.172
15.2400,3.143
15.2800,3.178
15.3200,3.160
15.3600,3.226
15.4000,3.187
15.4400,3.148
15.4800,3.149
15.5200,3.178
15.5600,3.100
15.6000,3.204
15.6400,3.243
15.6800,3.133
15.7200,3.129
15.7600,3.065
15.8000,3.117
15.8400,3.017
15.8800,3.122
15.9200,3.064
15.9600,3.059
16.0000,3.139
16.0400,3.135
16.0800,3.079
16.1200,3.110
16.1600,3.116
16.2000,2.979
16.2400,3.066
16.2800,3.105
16.3200,3.079
16.3600,3.172
16.4000,3.068
16.4400,3.041
16.4800,3.043
16.5200,2.980
16.5600,3.106
16.6000,2.957
16.6400,3.051
16.6800,3.023
16.7200,3.134
16.7600,3.015
16.8000,3.137
16.8400,2.981
16.8800,3.074
16.9200,3.065
16.9600,2.958
17.0000,2.965
17.0400,2.948
17.0800,2.976
17.1200,3.049
17.1600,3.007
17.2000,2.990
17.2400,2.820
17.2800,3.028
17.3200,3.114
17.3600,3.102
17.4000,2.964
17.4400,2.954
17.4800,2.980
17.5200,2.976
17.5600,2.971
17.6000,2.984
17.6400,3.060
17.6800,3.079
17.7200,2.945
17.7600,2.996
17.8000,2.958
17.8400,3.011
17.8800,2.899
17.9200,2.952
17.9600,3.049
18.0000,3.002
18.0400,2.938
18.0800,2.958
18.1200,2.837
18.1600,2.901
18.2000,2.858
18.2400,2.889
18.2800,2.912
18.3200,2.884
18.3600,2.966
18.4000,2.839
18.4400,2.853
18.4800,2.948
18.5200,2.907
18.5600,2.866
18.6000,2.849
18.6400,2.855
18.6800,2.818
18.7200,2.844
18.7600,2.836
18.8000,2.809
18.8400,2.875
18.8800,2.872
18.9200,2.918
18.9600,2.830
19.0000,2.879
19.0400,2.831
19.0800,2.850
19.1200,2.863
19.1600,2.846
19.2000,2.751
19.2400,2.765
19.2800,2.782
19.3200,2.860
19.3600,2.787
19.4000,2.783
19.4400,2.827
19.4800,2.703
19.5200,2.779
19.5600,2.763
19.6000,2.848
19.6400,2.709
19.6800,2.714
19.7200,2.661
19.7600,2.759
19.8000,2.786
19.8400,2.692
19.8800,2.660
19.9200,2.672
19.9600,2.772
20.0000,2.725
20.0400,2.661
20.0800,2.800
20.1200,2.773
20.1600,2.779
20.2000,2.755
20.2400,2.715
20.2800,2.714
20.3200,2.796
20.3600,2.809
20.4000,2.766
20.4400,2.745
20.4800,2.709
20.5200,2.707
20.5600,2.759
20.6000,2.811
20.6400,2.676
20.6800,2.685
20.7200,2.671
20.7600,2.654
20.8000,2.703
20.8400,2.728
20.8800,2.584
20.9200,2.692
20.9600,2.634
21.0000,2.754
21.0400,2.672
21.0800,2.708
21.1200,2.718
21.1600,2.715
21.2000,2.650
21.2400,2.664
21.2800,2.654
21.3200,2.686
21.3600,2.655
21.4000,2.619
21.4400,2.634
21.4800,2.675
21.5200,2.698
21.5600,2.680
21.6000,2.596
21.6400,2.661
21.6800,2.593
21.7200,2.636
21.7600,2.551
21.8000,2.637
21.8400,2.589
21.8800,2.605
21.9200,2.645
21.9600,2.509
22.0000,2.644
22.0400,2.549
22.0800,2.610
22.1200,2.604
22.1600,2.645
22.2000,2.697
22.2400,2.619
22.2800,2.536
22.3200,2.573
22.3600,2.633
22.4000,2.591
22.4400,2.533
22.4800,2.604
22.5200,2.562
22.5600,2.558
22.6000,2.556
22.6400,2.591
22.6800,2.561
22.7200,2.611
22.7600,2.495
22.8000,2.580
22.8400,2.573
22.8800,2.465
22.9200,2.570
22.9600,2.583
23.0000,2.526
23.0400,2.511
23.0800,2.493
23.1200,2.498
23.1600,2.467
23.2000,2.460
23.2400,2.476
23.2800,2.497
23.3200,2.411
23.3600,2.532
23.4000,2.494
23.4400,2.631
23.4800,2.523
23.5200,2.478
23.5600,2.466
23.6000,2.580
23.6400,2.518
23.6800,2.394
23.7200,2.529
23.7600,2.571
23.8000,2.501
23.8400,2.514
23.8800,2.458
23.9200,2.461
23.9600,2.484
24.0000,2.498
24.0400,2.470
24.0800,2.452
24.1200,2.515
24.1600,2.399
24.2000,2.376
24.2400,2.547
24.2800,2.497
24.3200,2.500
24.3600,2.447
24.4000,2.334
24.4400,2.331
24.4800,2.467
24.5200,2.383
24.5600,2.456
24.6000,2.433
24.6400,2.353
24.6800,2.464
24.7200,2.467
24.7600,2.404
24.8000,2.460
24.8400,2.393
24.8800,2.367
24.9200,2.425
24.9600,2.432
25.0000,2.423
25.0400,2.376
25.0800,2.397
25.1200,2.346
25.1600,2.296
25.2000,2.507
25.2400,2.380
25.2800,2.344
25.3200,2.392
25.3600,2.372
25.4000,2.394
25.4400,2.363
25.4800,2.422
25.5200,2.385
25.5600,2.319
25.6000,2.359
25.6400,2.322
25.6800,2.321
25.7200,2.331
25.7600,2.291
25.8000,2.276
25.8400,2.434
25.8800,2.408
25.9200,2.313
25.9600,2.378
26.0000,2.444
26.0400,2.378
26.0800,2.338
26.1200,2.332
26.1600,2.321
26.2000,2.352
26.2400,2.270
26.2800,2.343
26.3200,2.333
26.3600,2.283
26.4000,2.313
26.4400,2.251
26.4800,2.284
26.5200,2.260
26.5600,2.217
26.6000,2.268
26.6400,2.248
26.6800,2.351
26.7200,2.326
26.7600,2.348
26.8000,2.359
26.8400,2.273
26.8800,2.255
26.9200,2.192
26.9600,2.212
27.0000,2.337
27.0400,2.206
27.0800,2.238
27.1200,2.211
27.1600,2.276
27.2000,2.222
27.2400,2.252
27.2800,2.273
27.3200,2.188
27.3600,2.202
27.4000,2.234
27.4400,2.219
27.4800,2.285
27.5200,2.290
27.5600,2.368
27.6000,2.205
27.6400,2.215
27.6800,2.213
27.7200,2.285
27.7600,2.255
27.8000,2.239
27.8400,2.237
27.8800,2.264
27.9200,2.298
27.9600,2.293
28.0000,2.152
28.0400,2.312
28.0800,2.291
28.1200,2.249
28.1600,2.221
28.2000,2.300
28.2400,2.306
28.2800,2.189
28.3200,2.284
28.3600,2.299
28.4000,2.340
28.4400,2.282
28.4800,2.288
28.5200,2.326
28.5600,2.219
28.6000,2.244
28.6400,2.181
28.6800,2.269
28.7200,2.300
28.7600,2.256
28.8000,2.293
28.8400,2.209
28.8800,2.287
28.9200,2.230
28.9600,2.155
29.0000,2.179
29.0400,2.159
29.0800,2.167
29.1200,2.162
29.1600,2.175
29.2000,2.140
29.2400,2.211
29.2800,2.114
29.3200,2.101
29.3600,2.161
29.4000,2.148
29.4400,2.033
29.4800,2.055
29.5200,2.038
29.5600,2.066
29.6000,2.180
29.6400,2.083
29.6800,1.982
29.7200,2.027
29.7600,2.006
29.8000,1.974
29.8400,2.043
29.8800,2.057
29.9200,2.047
29.9600,2.048
30.0000,2.037
30.0400,1.957
30.0800,1.935
30.1200,1.926
30.1600,1.962
30.2000,1.875
30.2400,2.008
30.2800,2.047
30.3200,1.976
30.3600,1.986
30.4000,1.986
30.4400,1.954
30.4800,1.840
30.5200,1.911
30.5600,1.948
30.6000,1.952
30.6400,1.959
30.6800,1.902
30.7200,1.882
30.7600,1.896
30.8000,1.933
30.8400,1.861
30.8800,1.904
30.9200,1.869
30.9600,1.880
31.0000,1.824
31.0400,1.853
31.0800,1.775
31.1200,1.799
31.1600,1.764
31.2000,1.864
31.2400,1.817
31.2800,1.888
31.3200,1.934
31.3600,1.845
31.4000,1.811
31.4400,1.860
31.4800,1.827
31.5200,1.868
31.5600,1.749
31.6000,1.808
31.6400,1.788
31.6800,1.776
31.7200,1.806
31.7600,1.849
31.8000,1.826
31.8400,1.773
31.8800,1.763
31.9200,1.787
31.9600,1.851
32.0000,1.785
32.0400,1.699
32.0800,1.833
32.1200,1.775
32.1600,1.821
32.2000,1.810
32.2400,1.752
32.2800,1.753
32.3200,1.809
32.3600,1.720
32.4000,1.745
32.4400,1.792
32.4800,1.763
32.5200,1.718
32.5600,1.780
32.6000,1.736
32.6400,1.717
32.6800,1.840
32.7200,1.744
32.7600,1.732
32.8000,1.718
32.8400,1.782
32.8800,1.659
32.9200,1.701
32.9600,1.738
33.0000,1.746
33.0400,1.721
33.0800,1.769
33.1200,1.744
33.1600,1.685
33.2000,1.745
33.2400,1.674
33.2800,1.774
33.3200,1.640
33.3600,1.726
33.4000,1.633
33.4400,1.628
33.4800,1.630
33.5200,1.666
33.5600,1.668
33.6000,1.571
33.6400,1.647
33.6800,1.701
33.7200,1.661
33.7600,1.700
33.8000,1.696
33.8400,1.603
33.8800,1.671
33.9200,1.616
33.9600,1.641
34.0000,1.644
34.0400,1.666
34.0800,1.667
34.1200,1.638
34.1600,1.671
34.2000,1.687
34.2400,1.586
34.2800,1.577
34.3200,1.613
34.3600,1.533
34.4000,1.644
34.4400,1.653
34.4800,1.601
34.5200,1.716
34.5600,1.661
34.6000,1.638
34.6400,1.548
34.6800,1.540
34.7200,1.619
34.7600,1.590
34.8000,1.546
34.8400,1.550
34.8800,1.617
34.9200,1.605
34.9600,1.547
35.0000,1.626
35.0400,1.572
35.0800,1.608
35.1200,1.609
35.1600,1.552
35.2000,1.581
35.2400,1.544
35.2800,1.531
35.3200,1.481
35.3600,1.480
35.4000,1.510
35.4400,1.568
35.4800,1.547
35.5200,1.571
35.5600,1.514
35.6000,1.550
35.6400,1.557
35.6800,1.599
35.7200,1.571
35.7600,1.570
35.8000,1.550
35.8400,1.511
35.8800,1.506
35.9200,1.607
35.9600,1.491
36.0000,1.529
36.0400,1.574
36.0800,1.492
36.1200,1.530
36.1600,1.626
36.2000,1.517
36.2400,1.475
36.2800,1.572
36.3200,1.527
36.3600,1.534
36.4000,1.596
36.4400,1.576
36.4800,1.546
36.5200,1.579
36.5600,1.529
36.6000,1.554
36.6400,1.573
36.6800,1.577
36.7200,1.574
36.7600,1.474
36.8000,1.602
36.8400,1.531
36.8800,1.604
36.9200,1.542
36.9600,1.512
37.0000,1.533
37.0400,1.563
37.0800,1.544
37.1200,1.601
37.1600,1.639
37.2000,1.471
37.2400,1.572
37.2800,1.564
37.3200,1.561
37.3600,1.605
37.4000,1.616
37.4400,1.562
37.4800,1.557
37.5200,1.640
37.5600,1.667
37.6000,1.743
37.6400,1.684
37.6800,1.710
37.7200,1.745
37.7600,1.874
37.8000,1.941
37.8400,1.968
37.8800,2.179
37.9200,2.493
37.9600,2.629
38.0000,3.093
38.0400,3.772
38.0800,4.774
38.1200,6.558
38.1600,7.798
38.2000,8.020
38.2400,7.375
38.2800,6.434
38.3200,5.214
38.3600,4.044
38.4000,3.129
38.4400,2.752
38.4800,2.428
38.5200,2.176
38.5600,2.059
38.6000,1.977
38.6400,1.862
38.6800,1.763
38.7200,1.774
38.7600,1.654
38.8000,1.639
38.8400,1.602
38.8800,1.562
38.9200,1.542
38.9600,1.529
39.0000,1.495
39.0400,1.583
39.0800,1.537
39.1200,1.487
39.1600,1.448
39.2000,1.431
39.2400,1.428
39.2800,1.489
39.3200,1.486
39.3600,1.452
39.4000,1.462
39.4400,1.434
39.4800,1.462
39.5200,1.445
39.5600,1.449
39.6000,1.431
39.6400,1.435
39.6800,1.412
39.7200,1.403
39.7600,1.355
39.8000,1.397
39.8400,1.414
39.8800,1.445
39.9200,1.315
39.9600,1.367
40.0000,1.374
40.0400,1.416
40.0800,1.333
40.1200,1.370
40.1600,1.350
40.2000,1.354
40.2400,1.338
40.2800,1.368
40.3200,1.384
40.3600,1.376
40.4000,1.393
40.4400,1.386
40.4800,1.383
40.5200,1.377
40.5600,1.390
40.6000,1.349
40.6400,1.351
40.6800,1.297
40.7200,1.329
40.7600,1.315
40.8000,1.328
40.8400,1.306
40.8800,1.348
40.9200,1.307
40.9600,1.298
41.0000,1.311
41.0400,1.326
41.0800,1.339
41.1200,1.284
41.1600,1.391
41.2000,1.332
41.2400,1.423
41.2800,1.393
41.3200,1.397
41.3600,1.351
41.4000,1.368
41.4400,1.417
41.4800,1.387
41.5200,1.380
41.5600,1.434
41.6000,1.536
41.6400,1.569
41.6800,1.599
41.7200,1.676
41.7600,1.682
41.8000,1.757
41.8400,1.825
41.8800,2.004
41.9200,2.136
41.9600,2.229
42.0000,2.576
42.0400,2.766
42.0800,3.062
42.1200,3.295
42.1600,3.536
42.2000,3.973
42.2400,4.283
42.2800,4.555
42.3200,5.058
42.3600,5.338
42.4000,5.714
42.4400,6.070
42.4800,6.354
42.5200,6.660
42.5600,6.790
42.6000,6.856
42.6400,6.823
42.6800,6.781
42.7200,6.541
42.7600,5.993
42.8000,5.604
42.8400,5.143
42.8800,4.851
42.9200,4.350
42.9600,4.107
43.0000,3.882
43.0400,3.632
43.0800,3.604
43.1200,3.466
43.1600,3.591
43.2000,3.634
43.2400,3.862
43.2800,3.976
43.3200,3.674
43.3600,3.263
43.4000,2.915
43.4400,2.447
43.4800,2.106
43.5200,1.985
43.5600,1.712
43.6000,1.592
43.6400,1.557
43.6800,1.546
43.7200,1.502
43.7600,1.507
43.8000,1.436
43.8400,1.536
43.8800,1.558
43.9200,1.479
43.9600,1.545
44.0000,1.540
44.0400,1.594
44.0800,1.814
44.1200,1.815
44.1600,1.897
44.2000,2.076
44.2400,2.220
44.2800,2.487
44.3200,2.794
44.3600,2.921
44.4000,2.961
44.4400,2.868
44.4800,2.680
44.5200,2.473
44.5600,2.184
44.6000,1.881
44.6400,1.801
44.6800,1.618
44.7200,1.544
44.7600,1.486
44.8000,1.387
44.8400,1.423
44.8800,1.229
44.9200,1.270
44.9600,1.247
45.0000,1.243
45.0400,1.179
45.0800,1.139
45.1200,1.200
45.1600,1.129
45.2000,1.139
45.2400,1.143
45.2800,1.084
45.3200,1.130
45.3600,1.096
45.4000,1.025
45.4400,1.031
45.4800,1.038
45.5200,1.030
45.5600,1.042
45.6000,1.013
45.6400,1.018
45.6800,1.019
45.7200,1.102
45.7600,1.015
45.8000,1.055
45.8400,1.066
45.8800,1.071
45.9200,1.005
45.9600,1.011
46.0000,1.035
46.0400,1.023
46.0800,1.002
46.1200,0.999
46.1600,1.054
46.2000,1.019
46.2400,1.047
46.2800,0.964
46.3200,0.977
46.3600,0.983
46.4000,0.952
46.4400,0.968
46.4800,1.005
46.5200,0.957
46.5600,0.983
46.6000,1.007
46.6400,0.996
46.6800,1.007
46.7200,0.965
46.7600,0.957
46.8000,0.962
46.8400,0.916
46.8800,0.969
46.9200,0.903
46.9600,0.961
47.0000,0.981
47.0400,0.985
47.0800,0.956
47.1200,0.935
47.1600,0.955
47.2000,0.937
47.2400,0.941
47.2800,0.927
47.3200,0.965
47.3600,0.906
47.4000,0.978
47.4400,0.954
47.4800,0.927
47.5200,0.905
47.5600,0.951
47.6000,1.007
47.6400,0.998
47.6800,0.902
47.7200,1.020
47.7600,0.933
47.8000,0.972
47.8400,0.925
47.8800,0.873
47.9200,0.897
47.9600,0.937
48.0000,0.954
48.0400,0.933
48.0800,0.961
48.1200,0.949
48.1600,0.958
48.2000,0.998
48.2400,0.997
48.2800,0.960
48.3200,1.028
48.3600,0.987
48.4000,1.025
48.4400,0.982
48.4800,0.974
48.5200,1.013
48.5600,1.023
48.6000,1.088
48.6400,1.102
48.6800,1.120
48.7200,1.187
48.7600,1.256
48.8000,1.259
48.8400,1.279
48.8800,1.439
48.9200,1.376
48.9600,1.399
49.0000,1.608
49.0400,1.672
49.0800,1.712
49.1200,1.742
49.1600,1.931
49.2000,2.017
49.2400,2.015
49.2800,2.211
49.3200,2.112
49.3600,2.309
49.4000,2.454
49.4400,2.516
49.4800,2.583
49.5200,2.610
49.5600,2.746
49.6000,2.628
49.6400,2.587
49.6800,2.577
49.7200,2.554
49.7600,2.468
49.8000,2.308
49.8400,2.177
49.8800,2.178
49.9200,2.053
49.9600,1.880
50.0000,1.888
50.0400,1.779
50.0800,1.718
50.1200,1.720
50.1600,1.646
50.2000,1.683
50.2400,1.591
50.2800,1.668
50.3200,1.603
50.3600,1.534
50.4000,1.610
50.4400,1.550
50.4800,1.481
50.5200,1.403
50.5600,1.354
50.6000,1.239
50.6400,1.233
50.6800,1.133
50.7200,1.061
50.7600,1.028
50.8000,1.004
50.8400,0.964
50.8800,0.920
50.9200,0.880
50.9600,0.915
51.0000,0.882
51.0400,0.887
51.0800,0.879
51.1200,0.878
51.1600,0.818
51.2000,0.842
51.2400,0.870
51.2800,0.853
51.3200,0.851
51.3600,0.843
51.4000,0.818
51.4400,0.824
51.4800,0.782
51.5200,0.772
51.5600,0.743
51.6000,0.770
51.6400,0.849
51.6800,0.787
51.7200,0.764
51.7600,0.793
51.8000,0.799
51.8400,0.804
51.8800,0.767
51.9200,0.786
51.9600,0.770
52.0000,0.766
52.0400,0.727
52.0800,0.738
52.1200,0.747
52.1600,0.734
52.2000,0.741
52.2400,0.759
52.2800,0.732
52.3200,0.757
52.3600,0.737
52.4000,0.721
52.4400,0.696
52.4800,0.698
52.5200,0.751
52.5600,0.753
52.6000,0.730
52.6400,0.745
52.6800,0.749
52.7200,0.756
52.7600,0.709
52.8000,0.718
52.8400,0.700
52.8800,0.725
52.9200,0.755
52.9600,0.687
53.0000,0.732
53.0400,0.752
53.0800,0.715
53.1200,0.728
53.1600,0.744
53.2000,0.770
53.2400,0.722
53.2800,0.764
53.3200,0.681
53.3600,0.743
53.4000,0.668
53.4400,0.715
53.4800,0.724
53.5200,0.739
53.5600,0.685
53.6000,0.692
53.6400,0.729
53.6800,0.783
53.7200,0.721
53.7600,0.696
53.8000,0.714
53.8400,0.688
53.8800,0.703
53.9200,0.707
53.9600,0.701
54.0000,0.730
54.0400,0.747
54.0800,0.690
54.1200,0.604
54.1600,0.717
54.2000,0.717
54.2400,0.719
54.2800,0.664
54.3200,0.688
54.3600,0.683
54.4000,0.673
54.4400,0.671
54.4800,0.689
54.5200,0.686
54.5600,0.702
54.6000,0.700
54.6400,0.695
54.6800,0.699
54.7200,0.699
54.7600,0.678
54.8000,0.704
54.8400,0.684
54.8800,0.723
54.9200,0.676
54.9600,0.659
55.0000,0.658
55.0400,0.671
55.0800,0.635
55.1200,0.672
55.1600,0.640
55.2000,0.687
55.2400,0.693
55.2800,0.719
55.3200,0.673
55.3600,0.669
55.4000,0.643
55.4400,0.657
55.4800,0.672
55.5200,0.638
55.5600,0.676
55.6000,0.669
55.6400,0.664
55.6800,0.678
55.7200,0.634
55.7600,0.628
55.8000,0.690
55.8400,0.622
55.8800,0.661
55.9200,0.690
55.9600,0.671
56.0000,0.647
56.0400,0.635
56.0800,0.667
56.1200,0.621
56.1600,0.681
56.2000,0.634
56.2400,0.682
56.2800,0.626
56.3200,0.664
56.3600,0.698
56.4000,0.579
56.4400,0.625
56.4800,0.647
56.5200,0.619
56.5600,0.688
56.6000,0.626
56.6400,0.646
56.6800,0.637
56.7200,0.572
56.7600,0.614
56.8000,0.664
56.8400,0.605
56.8800,0.591
56.9200,0.684
56.9600,0.627
57.0000,0.620
57.0400,0.619
57.0800,0.622
57.1200,0.639
57.1600,0.699
57.2000,0.649
57.2400,0.624
57.2800,0.625
57.3200,0.637
57.3600,0.622
57.4000,0.588
57.4400,0.630
57.4800,0.616
57.5200,0.572
57.5600,0.623
57.6000,0.611
57.6400,0.603
57.6800,0.632
57.7200,0.645
57.7600,0.671
57.8000,0.642
57.8400,0.632
57.8800,0.601
57.9200,0.568
57.9600,0.630
58.0000,0.657
58.0400,0.667
58.0800,0.589
58.1200,0.606
58.1600,0.611
58.2000,0.622
58.2400,0.610
58.2800,0.592
58.3200,0.599
58.3600,0.618
58.4000,0.600
58.4400,0.605
58.4800,0.597
58.5200,0.627
58.5600,0.605
58.6000,0.593
58.6400,0.626
58.6800,0.569
58.7200,0.629
58.7600,0.589
58.8000,0.587
58.8400,0.579
58.8800,0.598
58.9200,0.561
58.9600,0.569
59.0000,0.606
59.0400,0.576
59.0800,0.588
59.1200,0.621
59.1600,0.555
59.2000,0.605
59.2400,0.576
59.2800,0.608
59.3200,0.596
59.3600,0.597
59.4000,0.610
59.4400,0.546
59.4800,0.567
59.5200,0.594
59.5600,0.559
59.6000,0.558
59.6400,0.571
59.6800,0.576
59.7200,0.580
59.7600,0.623
59.8000,0.607
59.8400,0.589
59.8800,0.557
59.9200,0.525
59.9600,0.521
60.0000,0.576
60.0400,0.586
60.0800,0.521
60.1200,0.568
60.1600,0.566
60.2000,0.597
60.2400,0.608
60.2800,0.537
60.3200,0.555
60.3600,0.543
60.4000,0.576
60.4400,0.596
60.4800,0.551
60.5200,0.545
60.5600,0.540
60.6000,0.536
60.6400,0.523
60.6800,0.513
60.7200,0.552
60.7600,0.554
60.8000,0.533
60.8400,0.556
60.8800,0.581
60.9200,0.524
60.9600,0.577
61.0000,0.520
61.0400,0.516
61.0800,0.553
61.1200,0.501
61.1600,0.555
61.2000,0.538
61.2400,0.532
61.2800,0.503
61.3200,0.537
61.3600,0.522
61.4000,0.551
61.4400,0.534
61.4800,0.533
61.5200,0.528
61.5600,0.576
61.6000,0.579
61.6400,0.502
61.6800,0.540
61.7200,0.531
61.7600,0.517
61.8000,0.505
61.8400,0.518
61.8800,0.548
61.9200,0.552
61.9600,0.529
62.0000,0.519
62.0400,0.490
62.0800,0.530
62.1200,0.491
62.1600,0.545
62.2000,0.524
62.2400,0.541
62.2800,0.509
62.3200,0.478
62.3600,0.523
62.4000,0.592
