theta,intensity
5.0000,6.300
5.0400,6.225
5.0800,6.360
5.1200,5.998
5.1600,6.204
5.2000,5.953
5.2400,6.091
5.2800,5.901
5.3200,5.941
5.3600,5.737
5.4000,5.828
5.4400,5.656
5.4800,5.683
5.5200,5.560
5.5600,5.545
5.6000,5.327
5.6400,5.344
5.6800,5.157
5.7200,5.084
5.7600,5.275
5.8000,5.024
5.8400,4.948
5.8800,5.083
5.9200,4.952
5.9600,4.689
6.0000,4.934
6.0400,4.592
6.0800,4.596
6.1200,4.556
6.1600,4.541
6.2000,4.495
6.2400,4.443
6.2800,4.277
6.3200,4.293
6.3600,4.227
6.4000,4.346
6.4400,4.097
6.4800,4.211
6.5200,4.158
6.5600,4.058
6.6000,4.079
6.6400,4.231
6.6800,4.135
6.7200,4.057
6.7600,3.969
6.8000,4.023
6.8400,3.959
6.8800,3.948
6.9200,3.850
6.9600,3.994
7.0000,3.939
7.0400,3.785
7.0800,3.957
7.1200,3.967
7.1600,3.901
7.2000,3.908
7.2400,3.867
7.2800,3.800
7.3200,3.885
7.3600,3.942
7.4000,3.888
7.4400,3.863
7.4800,3.852
7.5200,3.813
7.5600,3.719
7.6000,3.751
7.6400,3.748
7.6800,3.763
7.7200,3.760
7.7600,3.723
7.8000,3.842
7.8400,3.786
7.8800,3.744
7.9200,3.875
7.9600,3.730
8.0000,3.659
8.0400,3.779
8.0800,3.785
8.1200,3.899
8.1600,3.726
8.2000,3.783
8.2400,3.692
8.2800,3.616
8.3200,3.641
8.3600,3.727
8.4000,3.653
8.4400,3.713
8.4800,3.651
8.5200,3.821
8.5600,3.693
8.6000,3.663
8.6400,3.631
8.6800,3.585
8.7200,3.640
8.7600,3.677
8.8000,3.595
8.8400,3.662
8.8800,3.598
8.9200,3.703
8.9600,3.616
9.0000,3.548
9.0400,3.543
9.0800,3.657
9.1200,3.615
9.1600,3.533
9.2000,3.669
9.2400,3.586
9.2800,3.706
9.3200,3.583
9.3600,3.603
9.4000,3.651
9.4400,3.471
9.4800,3.573
9.5200,3.456
9.5600,3.515
9.6000,3.535
9.6400,3.508
9.6800,3.554
9.7200,3.639
9.7600,3.463
9.8000,3.579
9.8400,3.569
9.8800,3.462
9.9200,3.598
9.9600,3.542
10.0000,3.453
10.0400,3.552
10.0800,3.608
10.1200,3.445
10.1600,3.496
10.2000,3.524
10.2400,3.522
10.2800,3.358
10.3200,3.496
10.3600,3.415
10.4000,3.463
10.4400,3.417
10.4800,3.388
10.5200,3.442
10.5600,3.343
10.6000,3.338
10.6400,3.458
10.6800,3.381
10.7200,3.428
10.7600,3.472
10.8000,3.446
10.8400,3.412
10.8800,3.351
10.9200,3.436
10.9600,3.403
11.0000,3.448
11.0400,3.463
11.0800,3.561
11.1200,3.445
11.1600,3.536
11.2000,3.460
11.2400,3.379
11.2800,3.441
11.3200,3.390
11.3600,3.437
11.4000,3.349
11.4400,3.377
11.4800,3.443
11.5200,3.403
11.5600,3.395
11.6000,3.430
11.6400,3.427
11.6800,3.479
11.7200,3.340
11.7600,3.373
11.8000,3.374
11.8400,3.405
11.8800,3.324
11.9200,3.369
11.9600,3.401
12.0000,3.218
12.0400,3.370
12.0800,3.197
12.1200,3.276
12.1600,3.298
12.2000,3.381
12.2400,3.323
12.2800,3.272
12.3200,3.231
12.3600,3.263
12.4000,3.299
12.4400,3.280
12.4800,3.341
12.5200,3.241
12.5600,3.259
12.6000,3.340
12.6400,3.342
12.6800,3.218
12.7200,3.288
12.7600,3.299
12.8000,3.266
12.8400,3.223
12.8800,3.237
12.9200,3.263
12.9600,3.232
13.0000,3.116
13.0400,3.216
13.0800,3.314
13.1200,3.227
13.1600,3.351
13.2000,3.241
13.2400,3.100
13.2800,3.169
13.3200,3.308
13.3600,3.181
13.4000,3.076
13.4400,3.216
13.4800,3.291
13.5200,3.222
13.5600,3.127
13.6000,3.149
13.6400,3.138
13.6800,3.232
13.7200,3.107
13.7600,3.233
13.8000,3.179
13.8400,3.221
13.8800,3.219
13.9200,3.166
13.9600,3.142
14.0000,3.096
14.0400,3.070
14.0800,3.043
14.1200,3.081
14.1600,3.196
14.2000,3.155
14.2400,3.124
14.2800,3.151
14.3200,3.156
14.3600,3.066
14.4000,3.171
14.4400,3.072
14.4800,3.126
14.5200,3.158
14.5600,3.043
14.6000,3.102
14.6400,3.081
14.6800,3.190
14.7200,3.122
14.7600,3.053
14.8000,3.013
14.8400,3.101
14.8800,3.013
14.9200,3.179
14.9600,3.035
15.0000,3.012
15.0400,3.176
15.0800,2.998
15.1200,3.100
15.1600,3.123
15.2000,2.996
15.2400,3.107
15.2800,2.960
15.3200,3.094
15.3600,3.043
15.4000,3.015
15.4400,3.019
15.4800,2.974
15.5200,2.996
15.5600,2.969
15.6000,3.038
15.6400,3.104
15.6800,2.987
15.7200,2.900
15.7600,2.989
15.8000,2.928
15.8400,2.891
15.8800,3.033
15.9200,3.023
15.9600,2.942
16.0000,3.098
16.0400,2.923
16.0800,2.926
16.1200,2.873
16.1600,2.980
16.2000,3.000
16.2400,2.985
16.2800,2.918
16.3200,3.007
16.3600,2.891
16.4000,2.913
16.4400,2.951
16.4800,2.971
16.5200,2.951
16.5600,2.985
16.6000,3.009
16.6400,2.948
16.6800,3.017
16.7200,2.910
16.7600,2.869
16.8000,2.851
16.8400,2.902
16.8800,2.927
16.9200,2.900
16.9600,2.961
17.0000,2.848
17.0400,2.914
17.0800,2.806
17.1200,2.842
17.1600,2.928
17.2000,2.893
17.2400,2.936
17.2800,2.920
17.3200,2.921
17.3600,2.947
17.4000,2.778
17.4400,2.906
17.4800,2.891
17.5200,2.893
17.5600,2.884
17.6000,2.767
17.6400,2.716
17.6800,2.890
17.7200,2.884
17.7600,2.695
17.8000,2.791
17.8400,2.718
17.8800,2.786
17.9200,2.875
17.9600,2.809
18.0000,2.784
18.0400,2.834
18.0800,2.793
18.1200,2.858
18.1600,2.776
18.2000,2.791
18.2400,2.852
18.2800,2.730
18.3200,2.747
18.3600,2.750
18.4000,2.777
18.4400,2.852
18.4800,2.704
18.5200,2.730
18.5600,2.675
18.6000,2.723
18.6400,2.739
18.6800,2.759
18.7200,2.669
18.7600,2.715
18.8000,2.692
18.8400,2.812
18.8800,2.647
18.9200,2.646
18.9600,2.697
19.0000,2.738
19.0400,2.701
19.0800,2.550
19.1200,2.563
19.1600,2.671
19.2000,2.700
19.2400,2.605
19.2800,2.717
19.3200,2.692
19.3600,2.583
19.4000,2.691
19.4400,2.639
19.4800,2.725
19.5200,2.753
19.5600,2.761
19.6000,2.582
19.6400,2.719
19.6800,2.628
19.7200,2.599
19.7600,2.597
19.8000,2.619
19.8400,2.669
19.8800,2.741
19.9200,2.701
19.9600,2.579
20.0000,2.516
20.0400,2.561
20.0800,2.649
20.1200,2.653
20.1600,2.668
20.2000,2.599
20.2400,2.623
20.2800,2.588
20.3200,2.620
20.3600,2.695
20.4000,2.596
20.4400,2.628
20.4800,2.589
20.5200,2.620
20.5600,2.627
20.6000,2.553
20.6400,2.509
20.6800,2.583
20.7200,2.516
20.7600,2.575
20.8000,2.544
20.8400,2.660
20.8800,2.713
20.9200,2.550
20.9600,2.566
21.0000,2.466
21.0400,2.588
21.0800,2.568
21.1200,2.535
21.1600,2.432
21.2000,2.408
21.2400,2.513
21.2800,2.488
21.3200,2.554
21.3600,2.483
21.4000,2.472
21.4400,2.521
21.4800,2.425
21.5200,2.496
21.5600,2.468
21.6000,2.574
21.6400,2.480
21.6800,2.452
21.7200,2.565
21.7600,2.452
21.8000,2.401
21.8400,2.385
21.8800,2.469
21.9200,2.522
21.9600,2.410
22.0000,2.390
22.0400,2.419
22.0800,2.385
22.1200,2.450
22.1600,2.394
22.2000,2.443
22.2400,2.429
22.2800,2.513
22.3200,2.382
22.3600,2.377
22.4000,2.460
22.4400,2.511
22.4800,2.368
22.5200,2.549
22.5600,2.446
22.6000,2.392
22.6400,2.404
22.6800,2.417
22.7200,2.425
22.7600,2.432
22.8000,2.444
22.8400,2.343
22.8800,2.408
22.9200,2.355
22.9600,2.324
23.0000,2.371
23.0400,2.389
23.0800,2.313
23.1200,2.435
23.1600,2.380
23.2000,2.326
23.2400,2.315
23.2800,2.296
23.3200,2.284
23.3600,2.412
23.4000,2.348
23.4400,2.410
23.4800,2.322
23.5200,2.417
23.5600,2.332
23.6000,2.273
23.6400,2.327
23.6800,2.350
23.7200,2.300
23.7600,2.405
23.8000,2.291
23.8400,2.325
23.8800,2.331
23.9200,2.291
23.9600,2.257
24.0000,2.330
24.0400,2.336
24.0800,2.297
24.1200,2.211
24.1600,2.284
24.2000,2.256
24.2400,2.211
24.2800,2.288
24.3200,2.218
24.3600,2.239
24.4000,2.282
24.4400,2.334
24.4800,2.316
24.5200,2.243
24.5600,2.280
24.6000,2.261
24.6400,2.223
24.6800,2.286
24.7200,2.279
24.7600,2.285
24.8000,2.193
24.8400,2.202
24.8800,2.238
24.9200,2.232
24.9600,2.305
25.0000,2.224
25.0400,2.227
25.0800,2.216
25.1200,2.266
25.1600,2.118
25.2000,2.168
25.2400,2.323
25.2800,2.219
25.3200,2.227
25.3600,2.244
25.4000,2.155
25.4400,2.242
25.4800,2.115
25.5200,2.250
25.5600,2.171
25.6000,2.096
25.6400,2.142
25.6800,2.198
25.7200,2.125
25.7600,2.178
25.8000,2.126
25.8400,2.176
25.8800,2.217
25.9200,2.142
25.9600,2.132
26.0000,2.087
26.0400,2.168
26.0800,2.167
26.1200,2.124
26.1600,2.124
26.2000,2.171
26.2400,2.147
26.2800,2.048
26.3200,2.114
26.3600,2.038
26.4000,2.026
26.4400,2.090
26.4800,2.048
26.5200,2.113
26.5600,2.066
26.6000,2.058
26.6400,2.023
26.6800,2.069
26.7200,2.093
26.7600,2.067
26.8000,2.012
26.8400,2.061
26.8800,2.139
26.9200,2.098
26.9600,2.021
27.0000,2.083
27.0400,2.085
27.0800,2.025
27.1200,2.045
27.1600,2.047
27.2000,2.071
27.2400,2.034
27.2800,2.069
27.3200,1.943
27.3600,2.011
27.4000,2.023
27.4400,2.008
27.4800,2.063
27.5200,1.971
27.5600,1.943
27.6000,2.075
27.6400,1.959
27.6800,2.076
27.7200,1.975
27.7600,2.037
27.8000,2.070
27.8400,2.034
27.8800,2.001
27.9200,1.969
27.9600,2.001
28.0000,1.880
28.0400,1.884
28.0800,2.047
28.1200,2.005
28.1600,1.990
28.2000,1.973
28.2400,1.934
28.2800,1.875
28.3200,1.887
28.3600,1.937
28.4000,1.969
28.4400,1.938
28.4800,1.899
28.5200,1.962
28.5600,1.946
28.6000,1.873
28.6400,1.929
28.6800,1.900
28.7200,1.951
28.7600,1.821
28.8000,1.854
28.8400,1.909
28.8800,1.897
28.9200,1.909
28.9600,1.885
29.0000,1.928
29.0400,1.954
29.0800,1.985
29.1200,1.939
29.1600,1.908
29.2000,1.886
29.2400,1.879
29.2800,1.863
29.3200,1.914
29.3600,1.916
29.4000,1.839
29.4400,1.867
29.4800,1.814
29.5200,1.841
29.5600,1.800
29.6000,1.882
29.6400,1.806
29.6800,1.829
29.7200,1.831
29.7600,1.814
29.8000,1.811
29.8400,1.832
29.8800,1.835
29.9200,1.811
29.9600,1.708
30.0000,1.834
30.0400,1.819
30.0800,1.849
30.1200,1.780
30.1600,1.780
30.2000,1.822
30.2400,1.829
30.2800,1.758
30.3200,1.740
30.3600,1.756
30.4000,1.829
30.4400,1.762
30.4800,1.785
30.5200,1.815
30.5600,1.829
30.6000,1.725
30.6400,1.793
30.6800,1.729
30.7200,1.762
30.7600,1.801
30.8000,1.784
30.8400,1.698
30.8800,1.760
30.9200,1.817
30.9600,1.795
31.0000,1.744
31.0400,1.761
31.0800,1.735
31.1200,1.718
31.1600,1.686
31.2000,1.717
31.2400,1.699
31.2800,1.731
31.3200,1.729
31.3600,1.715
31.4000,1.785
31.4400,1.678
31.4800,1.754
31.5200,1.734
31.5600,1.659
31.6000,1.669
31.6400,1.741
31.6800,1.656
31.7200,1.617
31.7600,1.645
31.8000,1.672
31.8400,1.597
31.8800,1.688
31.9200,1.602
31.9600,1.624
32.0000,1.602
32.0400,1.712
32.0800,1.751
32.1200,1.561
32.1600,1.646
32.2000,1.634
32.2400,1.626
32.2800,1.675
32.3200,1.662
32.3600,1.629
32.4000,1.590
32.4400,1.663
32.4800,1.547
32.5200,1.627
32.5600,1.608
32.6000,1.534
32.6400,1.613
32.6800,1.661
32.7200,1.567
32.7600,1.603
32.8000,1.521
32.8400,1.665
32.8800,1.586
32.9200,1.642
32.9600,1.591
33.0000,1.600
33.0400,1.616
33.0800,1.626
33.1200,1.681
33.1600,1.627
33.2000,1.502
33.2400,1.510
33.2800,1.558
33.3200,1.578
33.3600,1.572
33.4000,1.607
33.4400,1.618
33.4800,1.586
33.5200,1.567
33.5600,1.525
33.6000,1.598
33.6400,1.567
33.6800,1.550
33.7200,1.560
33.7600,1.540
33.8000,1.534
33.8400,1.566
33.8800,1.511
33.9200,1.429
33.9600,1.520
34.0000,1.573
34.0400,1.590
34.0800,1.537
34.1200,1.574
34.1600,1.533
34.2000,1.498
34.2400,1.520
34.2800,1.441
34.3200,1.506
34.3600,1.469
34.4000,1.517
34.4400,1.508
34.4800,1.515
34.5200,1.456
34.5600,1.451
34.6000,1.518
34.6400,1.500
34.6800,1.488
34.7200,1.485
34.7600,1.564
34.8000,1.515
34.8400,1.503
34.8800,1.540
34.9200,1.440
34.9600,1.534
35.0000,1.482
35.0400,1.441
35.0800,1.461
35.1200,1.504
35.1600,1.501
35.2000,1.435
35.2400,1.494
35.2800,1.458
35.3200,1.446
35.3600,1.454
35.4000,1.461
35.4400,1.421
35.4800,1.509
35.5200,1.429
35.5600,1.383
35.6000,1.366
35.6400,1.463
35.6800,1.497
35.7200,1.458
35.7600,1.454
35.8000,1.471
35.8400,1.464
35.8800,1.442
35.9200,1.431
35.9600,1.497
36.0000,1.409
36.0400,1.478
36.0800,1.392
36.1200,1.418
36.1600,1.510
36.2000,1.482
36.2400,1.424
36.2800,1.365
36.3200,1.481
36.3600,1.413
36.4000,1.418
36.4400,1.383
36.4800,1.410
36.5200,1.367
36.5600,1.427
36.6000,1.493
36.6400,1.432
36.6800,1.460
36.7200,1.352
36.7600,1.341
36.8000,1.398
36.8400,1.381
36.8800,1.441
36.9200,1.452
36.9600,1.418
37.0000,1.450
37.0400,1.447
37.0800,1.503
37.1200,1.508
37.1600,1.393
37.2000,1.491
37.2400,1.455
37.2800,1.413
37.3200,1.441
37.3600,1.465
37.4000,1.454
37.4400,1.443
37.4800,1.427
37.5200,1.429
37.5600,1.491
37.6000,1.478
37.6400,1.506
37.6800,1.531
37.7200,1.494
37.7600,1.544
37.8000,1.519
37.8400,1.484
37.8800,1.501
37.9200,1.585
37.9600,1.436
38.0000,1.549
38.0400,1.531
38.0800,1.576
38.1200,1.631
38.1600,1.637
38.2000,1.577
38.2400,1.737
38.2800,1.728
38.3200,1.860
38.3600,1.847
38.4000,1.787
38.4400,1.890
38.4800,1.859
38.5200,1.927
38.5600,1.954
38.6000,2.184
38.6400,2.180
38.6800,2.224
38.7200,2.402
38.7600,2.350
38.8000,2.666
38.8400,2.679
38.8800,3.100
38.9200,3.329
38.9600,3.587
39.0000,3.888
39.0400,4.330
39.0800,4.672
39.1200,5.229
39.1600,5.750
39.2000,6.304
39.2400,7.047
39.2800,7.622
39.3200,8.642
39.3600,9.450
39.4000,10.372
39.4400,11.258
39.4800,12.336
39.5200,13.144
39.5600,13.630
39.6000,14.295
39.6400,14.607
39.6800,14.680
39.7200,14.713
39.7600,15.151
39.8000,15.201
39.8400,16.175
39.8800,17.848
39.9200,19.960
39.9600,21.503
40.0000,20.971
40.0400,19.091
40.0800,16.172
40.1200,12.690
40.1600,9.959
40.2000,7.466
40.2400,5.794
40.2800,4.458
40.3200,3.726
40.3600,3.239
40.4000,2.802
40.4400,2.649
40.4800,2.338
40.5200,2.166
40.5600,2.139
40.6000,1.966
40.6400,1.860
40.6800,1.910
40.7200,1.802
40.7600,1.665
40.8000,1.663
40.8400,1.586
40.8800,1.601
40.9200,1.499
40.9600,1.541
41.0000,1.546
41.0400,1.533
41.0800,1.444
41.1200,1.486
41.1600,1.408
41.2000,1.382
41.2400,1.434
41.2800,1.331
41.3200,1.374
41.3600,1.308
41.4000,1.297
41.4400,1.278
41.4800,1.334
41.5200,1.296
41.5600,1.324
41.6000,1.367
41.6400,1.307
41.6800,1.337
41.7200,1.268
41.7600,1.289
41.8000,1.248
41.8400,1.282
41.8800,1.153
41.9200,1.172
41.9600,1.288
42.0000,1.218
42.0400,1.221
42.0800,1.271
42.1200,1.271
42.1600,1.219
42.2000,1.184
42.2400,1.224
42.2800,1.189
42.3200,1.256
42.3600,1.282
42.4000,1.197
42.4400,1.299
42.4800,1.176
42.5200,1.107
42.5600,1.193
42.6000,1.201
42.6400,1.157
42.6800,1.194
42.7200,1.151
42.7600,1.190
42.8000,1.202
42.8400,1.152
42.8800,1.172
42.9200,1.183
42.9600,1.175
43.0000,1.179
43.0400,1.130
43.0800,1.173
43.1200,1.169
43.1600,1.083
43.2000,1.162
43.2400,1.080
43.2800,1.114
43.3200,1.263
43.3600,1.145
43.4000,1.137
43.4400,1.231
43.4800,1.160
43.5200,1.192
43.5600,1.124
43.6000,1.147
43.6400,1.174
43.6800,1.145
43.7200,1.160
43.7600,1.137
43.8000,1.171
43.8400,1.107
43.8800,1.196
43.9200,1.158
43.9600,1.122
44.0000,1.165
44.0400,1.122
44.0800,1.184
44.1200,1.271
44.1600,1.211
44.2000,1.172
44.2400,1.218
44.2800,1.178
44.3200,1.171
44.3600,1.220
44.4000,1.219
44.4400,1.264
44.4800,1.284
44.5200,1.299
44.5600,1.369
44.6000,1.289
44.6400,1.286
44.6800,1.352
44.7200,1.328
44.7600,1.391
44.8000,1.336
44.8400,1.290
44.8800,1.450
44.9200,1.455
44.9600,1.476
45.0000,1.605
45.0400,1.622
45.0800,1.646
45.1200,1.773
45.1600,1.805
45.2000,1.853
45.2400,1.872
45.2800,2.076
45.3200,2.201
45.3600,2.265
45.4000,2.384
45.4400,2.517
45.4800,2.670
45.5200,2.865
45.5600,3.009
45.6000,3.251
45.6400,3.520
45.6800,3.602
45.7200,3.828
45.7600,4.008
45.8000,4.301
45.8400,4.663
45.8800,4.842
45.9200,5.087
45.9600,5.189
46.0000,5.515
46.0400,5.577
46.0800,5.724
46.1200,5.861
46.1600,5.936
46.2000,6.040
46.2400,6.111
46.2800,6.322
46.3200,6.631
46.3600,7.096
46.4000,7.341
46.4400,7.705
46.4800,7.954
46.5200,7.641
46.5600,7.250
46.6000,6.547
46.6400,5.819
46.6800,5.150
46.7200,4.275
46.7600,3.704
46.8000,3.221
46.8400,2.886
46.8800,2.437
46.9200,2.222
46.9600,1.965
47.0000,1.831
47.0400,1.627
47.0800,1.623
47.1200,1.520
47.1600,1.362
47.2000,1.280
47.2400,1.298
47.2800,1.177
47.3200,1.182
47.3600,1.129
47.4000,1.221
47.4400,1.106
47.4800,1.038
47.5200,1.047
47.5600,1.083
47.6000,0.999
47.6400,0.993
47.6800,1.016
47.7200,0.938
47.7600,0.987
47.8000,1.015
47.8400,1.010
47.8800,0.981
47.9200,0.952
47.9600,0.945
48.0000,0.898
48.0400,0.938
48.0800,0.887
48.1200,0.902
48.1600,0.945
48.2000,0.907
48.2400,0.874
48.2800,0.938
48.3200,0.860
48.3600,0.895
48.4000,0.901
48.4400,0.869
48.4800,0.863
48.5200,0.831
48.5600,0.853
48.6000,0.832
48.6400,0.847
48.6800,0.832
48.7200,0.864
48.7600,0.874
48.8000,0.839
48.8400,0.830
48.8800,0.867
48.9200,0.821
48.9600,0.878
49.0000,0.822
49.0400,0.789
49.0800,0.854
49.1200,0.897
49.1600,0.825
49.2000,0.849
49.2400,0.802
49.2800,0.841
49.3200,0.884
49.3600,0.840
49.4000,0.822
49.4400,0.830
49.4800,0.844
49.5200,0.784
49.5600,0.773
49.6000,0.831
49.6400,0.813
49.6800,0.764
49.7200,0.778
49.7600,0.777
49.8000,0.789
49.8400,0.864
49.8800,0.780
49.9200,0.832
49.9600,0.812
50.0000,0.748
50.0400,0.731
50.0800,0.800
50.1200,0.742
50.1600,0.763
50.2000,0.832
50.2400,0.814
50.2800,0.817
50.3200,0.761
50.3600,0.769
50.4000,0.764
50.4400,0.747
50.4800,0.775
50.5200,0.766
50.5600,0.766
50.6000,0.750
50.6400,0.727
50.6800,0.755
50.7200,0.802
50.7600,0.768
50.8000,0.748
50.8400,0.756
50.8800,0.731
50.9200,0.698
50.9600,0.725
51.0000,0.814
51.0400,0.747
51.0800,0.761
51.1200,0.779
51.1600,0.788
51.2000,0.704
51.2400,0.751
51.2800,0.753
51.3200,0.780
51.3600,0.765
51.4000,0.745
51.4400,0.695
51.4800,0.698
51.5200,0.755
51.5600,0.732
51.6000,0.656
51.6400,0.734
51.6800,0.748
51.7200,0.743
51.7600,0.725
51.8000,0.730
51.8400,0.743
51.8800,0.737
51.9200,0.667
51.9600,0.731
52.0000,0.730
52.0400,0.699
52.0800,0.755
52.1200,0.728
52.1600,0.730
52.2000,0.731
52.2400,0.757
52.2800,0.711
52.3200,0.707
52.3600,0.699
52.4000,0.715
52.4400,0.692
52.4800,0.715
52.5200,0.710
52.5600,0.695
52.6000,0.731
52.6400,0.701
52.6800,0.735
52.7200,0.680
52.7600,0.652
52.8000,0.681
52.8400,0.675
52.8800,0.692
52.9200,0.708
52.9600,0.663
53.0000,0.732
53.0400,0.714
53.0800,0.671
53.1200,0.733
53.1600,0.685
53.2000,0.690
53.2400,0.699
53.2800,0.650
53.3200,0.689
53.3600,0.674
53.4000,0.722
53.4400,0.701
53.4800,0.704
53.5200,0.652
53.5600,0.657
53.6000,0.658
53.6400,0.628
53.6800,0.636
53.7200,0.647
53.7600,0.685
53.8000,0.682
53.8400,0.620
53.8800,0.633
53.9200,0.705
53.9600,0.697
54.0000,0.666
54.0400,0.679
54.0800,0.701
54.1200,0.702
54.1600,0.618
54.2000,0.691
54.2400,0.674
54.2800,0.653
54.3200,0.654
54.3600,0.677
54.4000,0.683
54.4400,0.603
54.4800,0.633
54.5200,0.651
54.5600,0.640
54.6000,0.665
54.6400,0.671
54.6800,0.619
54.7200,0.672
54.7600,0.649
54.8000,0.668
54.8400,0.636
54.8800,0.658
54.9200,0.586
54.9600,0.631
55.0000,0.651
55.0400,0.613
55.0800,0.645
55.1200,0.648
55.1600,0.692
55.2000,0.614
55.2400,0.621
55.2800,0.628
55.3200,0.596
55.3600,0.587
55.4000,0.658
55.4400,0.678
55.4800,0.630
55.5200,0.619
55.5600,0.631
55.6000,0.645
55.6400,0.673
55.6800,0.664
55.7200,0.607
55.7600,0.631
55.8000,0.629
55.8400,0.616
55.8800,0.609
55.9200,0.621
55.9600,0.639
56.0000,0.614
56.0400,0.610
56.0800,0.623
56.1200,0.636
56.1600,0.662
56.2000,0.631
56.2400,0.609
56.2800,0.628
56.3200,0.593
56.3600,0.587
56.4000,0.599
56.4400,0.651
56.4800,0.598
56.5200,0.597
56.5600,0.642
56.6000,0.629
56.6400,0.607
56.6800,0.629
56.7200,0.619
56.7600,0.634
56.8000,0.608
56.8400,0.606
56.8800,0.634
56.9200,0.585
56.9600,0.572
57.0000,0.596
57.0400,0.566
57.0800,0.586
57.1200,0.625
57.1600,0.603
57.2000,0.647
57.2400,0.578
57.2800,0.581
57.3200,0.570
57.3600,0.617
57.4000,0.568
57.4400,0.574
57.4800,0.541
57.5200,0.584
57.5600,0.568
57.6000,0.581
57.6400,0.590
57.6800,0.621
57.7200,0.601
57.7600,0.621
57.8000,0.595
57.8400,0.583
57.8800,0.547
57.9200,0.569
57.9600,0.545
58.0000,0.606
58.0400,0.611
58.0800,0.599
58.1200,0.589
58.1600,0.637
58.2000,0.581
58.2400,0.563
58.2800,0.608
58.3200,0.587
58.3600,0.585
58.4000,0.554
58.4400,0.567
58.4800,0.581
58.5200,0.547
58.5600,0.602
58.6000,0.549
58.6400,0.570
58.6800,0.518
58.7200,0.578
58.7600,0.552
58.8000,0.589
58.8400,0.579
58.8800,0.583
58.9200,0.584
58.9600,0.567
59.0000,0.647
59.0400,0.580
59.0800,0.518
59.1200,0.559
59.1600,0.579
59.2000,0.598
59.2400,0.584
59.2800,0.513
59.3200,0.528
59.3600,0.521
59.4000,0.567
59.4400,0.548
59.4800,0.544
59.5200,0.579
59.5600,0.562
59.6000,0.571
59.6400,0.573
59.6800,0.542
59.7200,0.555
59.7600,0.523
59.8000,0.554
59.8400,0.537
59.8800,0.529
59.9200,0.547
59.9600,0.545
60.0000,0.552
60.0400,0.526
60.0800,0.585
60.1200,0.545
60.1600,0.554
60.2000,0.519
60.2400,0.506
60.2800,0.534
60.3200,0.549
60.3600,0.505
60.4000,0.548
60.4400,0.505
60.4800,0.528
60.5200,0.535
60.5600,0.548
60.6000,0.548
60.6400,0.532
60.6800,0.577
60.7200,0.497
60.7600,0.509
60.8000,0.579
60.8400,0.500
60.8800,0.498
60.9200,0.502
60.9600,0.522
61.0000,0.546
61.0400,0.538
61.0800,0.512
61.1200,0.541
61.1600,0.545
61.2000,0.520
61.2400,0.548
61.2800,0.539
61.3200,0.534
61.3600,0.500
61.4000,0.545
61.4400,0.493
61.4800,0.541
61.5200,0.503
61.5600,0.483
61.6000,0.473
61.6400,0.496
61.6800,0.491
61.7200,0.493
61.7600,0.527
61.8000,0.500
61.8400,0.496
61.8800,0.481
61.9200,0.482
61.9600,0.521
62.0000,0.478
62.0400,0.520
62.0800,0.498
62.1200,0.521
62.1600,0.474
62.2000,0.488
62.2400,0.486
62.2800,0.501
62.3200,0.502
62.3600,0.467
