theta,intensity
5.0000,6.363
5.0400,6.376
5.0800,6.270
5.1200,6.371
5.1600,6.123
5.2000,6.122
5.2400,6.069
5.2800,6.138
5.3200,6.066
5.3600,6.020
5.4000,5.941
5.4400,5.923
5.4800,5.925
5.5200,5.884
5.5600,6.010
5.6000,5.908
5.6400,5.715
5.6800,5.759
5.7200,5.582
5.7600,5.481
5.8000,5.435
5.8400,5.373
5.8800,5.407
5.9200,5.386
5.9600,5.282
6.0000,5.195
6.0400,5.222
6.0800,5.008
6.1200,4.926
6.1600,4.998
6.2000,4.852
6.2400,4.825
6.2800,4.784
6.3200,4.595
6.3600,4.663
6.4000,4.484
6.4400,4.394
6.4800,4.455
6.5200,4.370
6.5600,4.350
6.6000,4.365
6.6400,4.300
6.6800,4.303
6.7200,4.186
6.7600,4.085
6.8000,4.160
6.8400,4.157
6.8800,4.187
6.9200,4.115
6.9600,4.176
7.0000,4.037
7.0400,3.984
7.0800,4.087
7.1200,3.941
7.1600,4.044
7.2000,4.002
7.2400,3.871
7.2800,3.853
7.3200,3.947
7.3600,3.956
7.4000,3.823
7.4400,3.912
7.4800,3.866
7.5200,3.954
7.5600,3.971
7.6000,3.774
7.6400,3.870
7.6800,3.859
7.7200,3.774
7.7600,3.793
7.8000,3.808
7.8400,3.685
7.8800,3.818
7.9200,3.717
7.9600,3.681
8.0000,3.852
8.0400,3.860
8.0800,3.895
8.1200,3.650
8.1600,3.632
8.2000,3.786
8.2400,3.717
8.2800,3.717
8.3200,3.618
8.3600,3.651
8.4000,3.703
8.4400,3.630
8.4800,3.646
8.5200,3.731
8.5600,3.682
8.6000,3.714
8.6400,3.693
8.6800,3.749
8.7200,3.760
8.7600,3.692
8.8000,3.712
8.8400,3.526
8.8800,3.527
8.9200,3.580
8.9600,3.570
9.0000,3.663
9.0400,3.626
9.0800,3.564
9.1200,3.631
9.1600,3.709
9.2000,3.604
9.2400,3.572
9.2800,3.591
9.3200,3.635
9.3600,3.469
9.4000,3.525
9.4400,3.595
9.4800,3.566
9.5200,3.559
9.5600,3.546
9.6000,3.487
9.6400,3.586
9.6800,3.456
9.7200,3.532
9.7600,3.535
9.8000,3.637
9.8400,3.450
9.8800,3.510
9.9200,3.450
9.9600,3.568
10.0000,3.565
10.0400,3.492
10.0800,3.399
10.1200,3.513
10.1600,3.518
10.2000,3.521
10.2400,3.431
10.2800,3.522
10.3200,3.342
10.3600,3.501
10.4000,3.381
10.4400,3.561
10.4800,3.491
10.5200,3.552
10.5600,3.529
10.6000,3.396
10.6400,3.364
10.6800,3.452
10.7200,3.432
10.7600,3.487
10.8000,3.432
10.8400,3.443
10.8800,3.443
10.9200,3.430
10.9600,3.406
11.0000,3.323
11.0400,3.407
11.0800,3.388
11.1200,3.360
11.1600,3.435
11.2000,3.464
11.2400,3.435
11.2800,3.318
11.3200,3.396
11.3600,3.367
11.4000,3.435
11.4400,3.402
11.4800,3.362
11.5200,3.300
11.5600,3.325
11.6000,3.399
11.6400,3.352
11.6800,3.348
11.7200,3.207
11.7600,3.492
11.8000,3.436
11.8400,3.323
11.8800,3.415
11.9200,3.362
11.9600,3.397
12.0000,3.424
12.0400,3.282
12.0800,3.208
12.1200,3.295
12.1600,3.202
12.2000,3.378
12.2400,3.330
12.2800,3.398
12.3200,3.247
12.3600,3.221
12.4000,3.246
12.4400,3.275
12.4800,3.265
12.5200,3.330
12.5600,3.287
12.6000,3.276
12.6400,3.312
12.6800,3.321
12.7200,3.165
12.7600,3.331
12.8000,3.229
12.8400,3.270
12.8800,3.316
12.9200,3.178
12.9600,3.279
13.0000,3.253
13.0400,3.296
13.0800,3.186
13.1200,3.292
13.1600,3.102
13.2000,3.211
13.2400,3.226
13.2800,3.144
13.3200,3.037
13.3600,3.151
13.4000,3.099
13.4400,3.077
13.4800,3.199
13.5200,3.236
13.5600,3.219
13.6000,3.072
13.6400,3.284
13.6800,3.158
13.7200,3.172
13.7600,3.208
13.8000,3.215
13.8400,3.238
13.8800,3.149
13.9200,3.061
13.9600,3.248
14.0000,3.135
14.0400,3.183
14.0800,3.092
14.1200,3.050
14.1600,3.202
14.2000,3.098
14.2400,3.074
14.2800,3.129
14.3200,3.065
14.3600,3.101
14.4000,3.160
14.4400,3.101
14.4800,3.177
14.5200,2.944
14.5600,3.012
14.6000,3.048
14.6400,3.145
14.6800,3.022
14.7200,3.091
14.7600,3.237
14.8000,2.991
14.8400,3.057
14.8800,3.096
14.9200,3.131
14.9600,3.098
15.0000,3.107
15.0400,3.081
15.0800,3.060
15.1200,3.034
15.1600,3.019
15.2000,3.029
15.2400,3.127
15.2800,2.992
15.3200,3.054
15.3600,3.089
15.4000,3.019
15.4400,2.983
15.4800,2.902
15.5200,2.996
15.5600,2.980
15.6000,3.016
15.6400,2.944
15.6800,2.911
15.7200,2.992
15.7600,2.988
15.8000,2.916
15.8400,3.019
15.8800,2.977
15.9200,2.962
15.9600,2.979
16.0000,2.919
16.0400,2.956
16.0800,3.027
16.1200,2.999
16.1600,2.926
16.2000,2.950
16.2400,2.991
16.2800,2.872
16.3200,2.936
16.3600,3.100
16.4000,2.863
16.4400,2.934
16.4800,2.882
16.5200,2.900
16.5600,2.868
16.6000,2.992
16.6400,2.878
16.6800,2.911
16.7200,2.939
16.7600,2.938
16.8000,2.814
16.8400,2.869
16.8800,2.892
16.9200,2.865
16.9600,2.893
17.0000,2.817
17.0400,2.873
17.0800,2.865
17.1200,2.858
17.1600,2.859
17.2000,2.855
17.2400,2.784
17.2800,2.822
17.3200,2.829
17.3600,2.896
17.4000,2.842
17.4400,2.809
17.4800,2.826
17.5200,2.725
17.5600,2.847
17.6000,2.830
17.6400,2.784
17.6800,2.890
17.7200,2.802
17.7600,2.821
17.8000,2.848
17.8400,2.900
17.8800,2.828
17.9200,2.764
17.9600,2.712
18.0000,2.747
18.0400,2.739
18.0800,2.780
18.1200,2.726
18.1600,2.681
18.2000,2.758
18.2400,2.822
18.2800,2.748
18.3200,2.775
18.3600,2.743
18.4000,2.835
18.4400,2.833
18.4800,2.776
18.5200,2.784
18.5600,2.752
18.6000,2.751
18.6400,2.795
18.6800,2.746
18.7200,2.718
18.7600,2.742
18.8000,2.593
18.8400,2.753
18.8800,2.803
18.9200,2.723
18.9600,2.702
19.0000,2.636
19.0400,2.687
19.0800,2.636
19.1200,2.726
19.1600,2.691
19.2000,2.671
19.2400,2.706
19.2800,2.716
19.3200,2.724
19.3600,2.712
19.4000,2.685
19.4400,2.630
19.4800,2.660
19.5200,2.618
19.5600,2.702
19.6000,2.607
19.6400,2.660
19.6800,2.612
19.7200,2.622
19.7600,2.671
19.8000,2.594
19.8400,2.667
19.8800,2.612
19.9200,2.528
19.9600,2.634
20.0000,2.605
20.0400,2.736
20.0800,2.577
20.1200,2.577
20.1600,2.692
20.2000,2.574
20.2400,2.642
20.2800,2.647
20.3200,2.554
20.3600,2.611
20.4000,2.702
20.4400,2.484
20.4800,2.584
20.5200,2.564
20.5600,2.508
20.6000,2.514
20.6400,2.490
20.6800,2.690
20.7200,2.600
20.7600,2.545
20.8000,2.465
20.8400,2.529
20.8800,2.569
20.9200,2.686
20.9600,2.627
21.0000,2.466
21.0400,2.467
21.0800,2.540
21.1200,2.662
21.1600,2.426
21.2000,2.516
21.2400,2.506
21.2800,2.504
21.3200,2.539
21.3600,2.510
21.4000,2.599
21.4400,2.563
21.4800,2.580
21.5200,2.470
21.5600,2.427
21.6000,2.427
21.6400,2.409
21.6800,2.448
21.7200,2.428
21.7600,2.409
21.8000,2.404
21.8400,2.551
21.8800,2.415
21.9200,2.450
21.9600,2.547
22.0000,2.410
22.0400,2.357
22.0800,2.487
22.1200,2.489
22.1600,2.463
22.2000,2.469
22.2400,2.379
22.2800,2.454
22.3200,2.489
22.3600,2.433
22.4000,2.433
22.4400,2.383
22.4800,2.447
22.5200,2.478
22.5600,2.458
22.6000,2.445
22.6400,2.403
22.6800,2.411
22.7200,2.315
22.7600,2.370
22.8000,2.356
22.8400,2.499
22.8800,2.390
22.9200,2.477
22.9600,2.395
23.0000,2.497
23.0400,2.326
23.0800,2.354
23.1200,2.319
23.1600,2.409
23.2000,2.435
23.2400,2.374
23.2800,2.382
23.3200,2.428
23.3600,2.309
23.4000,2.325
23.4400,2.237
23.4800,2.332
23.5200,2.306
23.5600,2.372
23.6000,2.284
23.6400,2.300
23.6800,2.299
23.7200,2.265
23.7600,2.285
23.8000,2.285
23.8400,2.389
23.8800,2.318
23.9200,2.302
23.9600,2.322
24.0000,2.335
24.0400,2.279
24.0800,2.269
24.1200,2.342
24.1600,2.288
24.2000,2.251
24.2400,2.194
24.2800,2.310
24.3200,2.320
24.3600,2.270
24.4000,2.248
24.4400,2.181
24.4800,2.310
24.5200,2.302
24.5600,2.339
24.6000,2.298
24.6400,2.151
24.6800,2.293
24.7200,2.229
24.7600,2.256
24.8000,2.241
24.8400,2.255
24.8800,2.303
24.9200,2.285
24.9600,2.203
25.0000,2.301
25.0400,2.205
25.0800,2.267
25.1200,2.207
25.1600,2.212
25.2000,2.231
25.2400,2.273
25.2800,2.149
25.3200,2.210
25.3600,2.166
25.4000,2.215
25.4400,2.215
25.4800,2.171
25.5200,2.187
25.5600,2.160
25.6000,2.132
25.6400,2.158
25.6800,2.211
25.7200,2.060
25.7600,2.095
25.8000,2.203
25.8400,2.214
25.8800,2.083
25.9200,2.149
25.9600,2.181
26.0000,2.146
26.0400,2.138
26.0800,2.114
26.1200,2.075
26.1600,2.184
26.2000,2.004
26.2400,2.193
26.2800,2.058
26.3200,2.070
26.3600,2.083
26.4000,2.111
26.4400,2.161
26.4800,2.114
26.5200,2.043
26.5600,2.084
26.6000,1.993
26.6400,2.064
26.6800,2.113
26.7200,2.135
26.7600,2.108
26.8000,2.008
26.8400,1.998
26.8800,2.036
26.9200,2.076
26.9600,2.049
27.0000,2.075
27.0400,2.091
27.0800,2.101
27.1200,1.952
27.1600,2.050
27.2000,2.048
27.2400,2.096
27.2800,2.028
27.3200,2.147
27.3600,2.086
27.4000,2.022
27.4400,2.004
27.4800,1.908
27.5200,2.034
27.5600,1.957
27.6000,1.944
27.6400,1.998
27.6800,2.021
27.7200,1.986
27.7600,1.923
27.8000,1.962
27.8400,2.031
27.8800,2.025
27.9200,2.003
27.9600,1.969
28.0000,1.950
28.0400,1.952
28.0800,1.997
28.1200,1.998
28.1600,2.061
28.2000,2.035
28.2400,2.045
28.2800,1.959
28.3200,1.988
28.3600,1.969
28.4000,1.952
28.4400,1.935
28.4800,2.072
28.5200,1.981
28.5600,1.948
28.6000,1.950
28.6400,1.993
28.6800,2.026
28.7200,1.999
28.7600,1.919
28.8000,1.999
28.8400,1.981
28.8800,1.980
28.9200,1.882
28.9600,1.978
29.0000,1.940
29.0400,1.920
29.0800,1.903
29.1200,1.939
29.1600,1.887
29.2000,1.864
29.2400,1.850
29.2800,1.965
29.3200,1.853
29.3600,1.908
29.4000,1.821
29.4400,1.823
29.4800,1.791
29.5200,1.970
29.5600,1.775
29.6000,1.918
29.6400,1.931
29.6800,1.902
29.7200,1.819
29.7600,1.768
29.8000,1.830
29.8400,1.841
29.8800,1.782
29.9200,1.808
29.9600,1.872
30.0000,1.801
30.0400,1.838
30.0800,1.808
30.1200,1.799
30.1600,1.857
30.2000,1.767
30.2400,1.733
30.2800,1.806
30.3200,1.777
30.3600,1.894
30.4000,1.794
30.4400,1.707
30.4800,1.749
30.5200,1.793
30.5600,1.675
30.6000,1.685
30.6400,1.832
30.6800,1.715
30.7200,1.615
30.7600,1.762
30.8000,1.719
30.8400,1.768
30.8800,1.689
30.9200,1.775
30.9600,1.769
31.0000,1.738
31.0400,1.701
31.0800,1.671
31.1200,1.738
31.1600,1.735
31.2000,1.722
31.2400,1.819
31.2800,1.715
31.3200,1.666
31.3600,1.695
31.4000,1.697
31.4400,1.644
31.4800,1.751
31.5200,1.721
31.5600,1.751
31.6000,1.688
31.6400,1.622
31.6800,1.680
31.7200,1.686
31.7600,1.719
31.8000,1.659
31.8400,1.661
31.8800,1.663
31.9200,1.622
31.9600,1.612
32.0000,1.622
32.0400,1.568
32.0800,1.689
32.1200,1.675
32.1600,1.718
32.2000,1.624
32.2400,1.671
32.2800,1.529
32.3200,1.621
32.3600,1.626
32.4000,1.666
32.4400,1.691
32.4800,1.636
32.5200,1.601
32.5600,1.606
32.6000,1.620
32.6400,1.622
32.6800,1.596
32.7200,1.553
32.7600,1.650
32.8000,1.554
32.8400,1.641
32.8800,1.595
32.9200,1.583
32.9600,1.562
33.0000,1.629
33.0400,1.559
33.0800,1.487
33.1200,1.642
33.1600,1.543
33.2000,1.575
33.2400,1.636
33.2800,1.585
33.3200,1.646
33.3600,1.525
33.4000,1.584
33.4400,1.529
33.4800,1.560
33.5200,1.536
33.5600,1.563
33.6000,1.514
33.6400,1.465
33.6800,1.563
33.7200,1.578
33.7600,1.527
33.8000,1.523
33.8400,1.586
33.8800,1.556
33.9200,1.535
33.9600,1.586
34.0000,1.522
34.0400,1.511
34.0800,1.473
34.1200,1.562
34.1600,1.510
34.2000,1.532
34.2400,1.541
34.2800,1.486
34.3200,1.474
34.3600,1.479
34.4000,1.481
34.4400,1.458
34.4800,1.397
34.5200,1.548
34.5600,1.483
34.6000,1.497
34.6400,1.490
34.6800,1.479
34.7200,1.528
34.7600,1.411
34.8000,1.460
34.8400,1.423
34.8800,1.450
34.9200,1.428
34.9600,1.430
35.0000,1.484
35.0400,1.515
35.0800,1.499
35.1200,1.474
35.1600,1.508
35.2000,1.478
35.2400,1.489
35.2800,1.423
35.3200,1.475
35.3600,1.472
35.4000,1.478
35.4400,1.419
35.4800,1.452
35.5200,1.432
35.5600,1.485
35.6000,1.498
35.6400,1.463
35.6800,1.375
35.7200,1.370
35.7600,1.472
35.8000,1.503
35.8400,1.489
35.8800,1.467
35.9200,1.421
35.9600,1.451
36.0000,1.524
36.0400,1.454
36.0800,1.479
36.1200,1.435
36.1600,1.459
36.2000,1.408
36.2400,1.498
36.2800,1.475
36.3200,1.516
36.3600,1.501
36.4000,1.466
36.4400,1.438
36.4800,1.411
36.5200,1.487
36.5600,1.465
36.6000,1.458
36.6400,1.506
36.6800,1.424
36.7200,1.471
36.7600,1.474
36.8000,1.490
36.8400,1.522
36.8800,1.485
36.9200,1.546
36.9600,1.483
37.0000,1.539
37.0400,1.508
37.0800,1.571
37.1200,1.581
37.1600,1.554
37.2000,1.520
37.2400,1.515
37.2800,1.613
37.3200,1.583
37.3600,1.541
37.4000,1.630
37.4400,1.612
37.4800,1.612
37.5200,1.681
37.5600,1.632
37.6000,1.718
37.6400,1.698
37.6800,1.823
37.7200,1.882
37.7600,1.785
37.8000,2.023
37.8400,2.118
37.8800,2.132
37.9200,2.221
37.9600,2.260
38.0000,2.552
38.0400,2.801
38.0800,3.120
38.1200,3.668
38.1600,4.170
38.2000,5.087
38.2400,6.199
38.2800,7.183
38.3200,8.509
38.3600,9.774
38.4000,10.953
38.4400,12.717
38.4800,13.699
38.5200,14.779
38.5600,15.941
38.6000,16.490
38.6400,16.505
38.6800,16.348
38.7200,15.568
38.7600,14.256
38.8000,12.939
38.8400,11.600
38.8800,10.476
38.9200,9.338
38.9600,8.097
39.0000,7.139
39.0400,6.373
39.0800,5.638
39.1200,5.109
39.1600,4.570
39.2000,4.121
39.2400,3.913
39.2800,3.645
39.3200,3.279
39.3600,3.098
39.4000,2.999
39.4400,2.750
39.4800,2.599
39.5200,2.514
39.5600,2.451
39.6000,2.393
39.6400,2.262
39.6800,2.202
39.7200,2.125
39.7600,2.071
39.8000,2.015
39.8400,2.011
39.8800,1.899
39.9200,1.831
39.9600,1.843
40.0000,1.816
40.0400,1.685
40.0800,1.665
40.1200,1.690
40.1600,1.641
40.2000,1.697
40.2400,1.592
40.2800,1.515
40.3200,1.519
40.3600,1.442
40.4000,1.531
40.4400,1.486
40.4800,1.500
40.5200,1.409
40.5600,1.438
40.6000,1.508
40.6400,1.448
40.6800,1.392
40.7200,1.341
40.7600,1.363
40.8000,1.346
40.8400,1.298
40.8800,1.364
40.9200,1.327
40.9600,1.367
41.0000,1.303
41.0400,1.255
41.0800,1.278
41.1200,1.273
41.1600,1.370
41.2000,1.272
41.2400,1.308
41.2800,1.208
41.3200,1.214
41.3600,1.239
41.4000,1.240
41.4400,1.267
41.4800,1.229
41.5200,1.195
41.5600,1.219
41.6000,1.232
41.6400,1.193
41.6800,1.228
41.7200,1.154
41.7600,1.213
41.8000,1.223
41.8400,1.305
41.8800,1.217
41.9200,1.195
41.9600,1.199
42.0000,1.198
42.0400,1.185
42.0800,1.162
42.1200,1.194
42.1600,1.188
42.2000,1.219
42.2400,1.170
42.2800,1.196
42.3200,1.182
42.3600,1.220
42.4000,1.198
42.4400,1.237
42.4800,1.218
42.5200,1.195
42.5600,1.176
42.6000,1.216
42.6400,1.210
42.6800,1.172
42.7200,1.199
42.7600,1.213
42.8000,1.200
42.8400,1.165
42.8800,1.176
42.9200,1.197
42.9600,1.201
43.0000,1.170
43.0400,1.302
43.0800,1.192
43.1200,1.219
43.1600,1.170
43.2000,1.246
43.2400,1.186
43.2800,1.270
43.3200,1.278
43.3600,1.152
43.4000,1.278
43.4400,1.266
43.4800,1.255
43.5200,1.210
43.5600,1.176
43.6000,1.311
43.6400,1.316
43.6800,1.287
43.7200,1.400
43.7600,1.344
43.8000,1.322
43.8400,1.339
43.8800,1.383
43.9200,1.442
43.9600,1.600
44.0000,1.553
44.0400,1.593
44.0800,1.695
44.1200,1.771
44.1600,1.761
44.2000,1.878
44.2400,1.971
44.2800,2.178
44.3200,2.421
44.3600,2.578
44.4000,2.842
44.4400,3.099
44.4800,3.481
44.5200,3.753
44.5600,4.300
44.6000,4.520
44.6400,4.921
44.6800,5.334
44.7200,5.494
44.7600,5.868
44.8000,6.075
44.8400,6.074
44.8800,6.269
44.9200,6.118
44.9600,6.135
45.0000,5.810
45.0400,5.694
45.0800,5.340
45.1200,4.966
45.1600,4.658
45.2000,4.302
45.2400,3.930
45.2800,3.618
45.3200,3.297
45.3600,3.072
45.4000,2.848
45.4400,2.698
45.4800,2.556
45.5200,2.317
45.5600,2.168
45.6000,2.023
45.6400,1.999
45.6800,1.821
45.7200,1.789
45.7600,1.782
45.8000,1.648
45.8400,1.581
45.8800,1.528
45.9200,1.451
45.9600,1.500
46.0000,1.456
46.0400,1.399
46.0800,1.350
46.1200,1.340
46.1600,1.280
46.2000,1.248
46.2400,1.259
46.2800,1.254
46.3200,1.184
46.3600,1.172
46.4000,1.211
46.4400,1.158
46.4800,1.057
46.5200,1.147
46.5600,1.088
46.6000,1.078
46.6400,1.102
46.6800,1.068
46.7200,1.007
46.7600,1.056
46.8000,1.067
46.8400,1.003
46.8800,1.061
46.9200,0.984
46.9600,0.966
47.0000,0.930
47.0400,0.984
47.0800,1.050
47.1200,0.980
47.1600,0.992
47.2000,0.951
47.2400,0.986
47.2800,0.992
47.3200,0.972
47.3600,0.951
47.4000,0.883
47.4400,0.901
47.4800,0.923
47.5200,0.906
47.5600,0.874
47.6000,0.903
47.6400,0.893
47.6800,0.928
47.7200,0.915
47.7600,0.898
47.8000,0.913
47.8400,0.958
47.8800,0.877
47.9200,0.896
47.9600,0.877
48.0000,0.889
48.0400,0.907
48.0800,0.865
48.1200,0.850
48.1600,0.849
48.2000,0.896
48.2400,0.846
48.2800,0.846
48.3200,0.912
48.3600,0.854
48.4000,0.850
48.4400,0.860
48.4800,0.828
48.5200,0.862
48.5600,0.896
48.6000,0.881
48.6400,0.858
48.6800,0.799
48.7200,0.818
48.7600,0.805
48.8000,0.857
48.8400,0.814
48.8800,0.804
48.9200,0.808
48.9600,0.840
49.0000,0.832
49.0400,0.834
49.0800,0.760
49.1200,0.756
49.1600,0.792
49.2000,0.835
49.2400,0.780
49.2800,0.820
49.3200,0.808
49.3600,0.804
49.4000,0.857
49.4400,0.805
49.4800,0.813
49.5200,0.788
49.5600,0.823
49.6000,0.780
49.6400,0.783
49.6800,0.801
49.7200,0.812
49.7600,0.746
49.8000,0.781
49.8400,0.786
49.8800,0.756
49.9200,0.740
49.9600,0.768
50.0000,0.785
50.0400,0.764
50.0800,0.759
50.1200,0.736
50.1600,0.773
50.2000,0.830
50.2400,0.754
50.2800,0.717
50.3200,0.795
50.3600,0.770
50.4000,0.741
50.4400,0.758
50.4800,0.797
50.5200,0.760
50.5600,0.735
50.6000,0.720
50.6400,0.738
50.6800,0.761
50.7200,0.764
50.7600,0.728
50.8000,0.796
50.8400,0.704
50.8800,0.728
50.9200,0.764
50.9600,0.720
51.0000,0.753
51.0400,0.785
51.0800,0.754
51.1200,0.791
51.1600,0.729
51.2000,0.738
51.2400,0.706
51.2800,0.770
51.3200,0.739
51.3600,0.724
51.4000,0.714
51.4400,0.740
51.4800,0.729
51.5200,0.722
51.5600,0.704
51.6000,0.721
51.6400,0.707
51.6800,0.713
51.7200,0.764
51.7600,0.707
51.8000,0.689
51.8400,0.682
51.8800,0.739
51.9200,0.764
51.9600,0.695
52.0000,0.687
52.0400,0.697
52.0800,0.760
52.1200,0.733
52.1600,0.715
52.2000,0.680
52.2400,0.670
52.2800,0.759
52.3200,0.714
52.3600,0.723
52.4000,0.697
52.4400,0.683
52.4800,0.701
52.5200,0.716
52.5600,0.715
52.6000,0.699
52.6400,0.701
52.6800,0.706
52.7200,0.699
52.7600,0.672
52.8000,0.680
52.8400,0.664
52.8800,0.638
52.9200,0.671
52.9600,0.649
53.0000,0.712
53.0400,0.719
53.0800,0.647
53.1200,0.654
53.1600,0.665
53.2000,0.638
53.2400,0.669
53.2800,0.657
53.3200,0.710
53.3600,0.682
53.4000,0.681
53.4400,0.686
53.4800,0.688
53.5200,0.678
53.5600,0.667
53.6000,0.623
53.6400,0.667
53.6800,0.644
53.7200,0.650
53.7600,0.652
53.8000,0.583
53.8400,0.674
53.8800,0.713
53.9200,0.628
53.9600,0.656
54.0000,0.673
54.0400,0.700
54.0800,0.662
54.1200,0.672
54.1600,0.678
54.2000,0.653
54.2400,0.658
54.2800,0.695
54.3200,0.619
54.3600,0.630
54.4000,0.715
54.4400,0.681
54.4800,0.692
54.5200,0.618
54.5600,0.649
54.6000,0.658
54.6400,0.680
54.6800,0.663
54.7200,0.666
54.7600,0.659
54.8000,0.637
54.8400,0.722
54.8800,0.637
54.9200,0.607
54.9600,0.623
55.0000,0.588
55.0400,0.625
55.0800,0.667
55.1200,0.632
55.1600,0.642
55.2000,0.648
55.2400,0.663
55.2800,0.644
55.3200,0.644
55.3600,0.693
55.4000,0.657
55.4400,0.608
55.4800,0.612
55.5200,0.618
55.5600,0.609
55.6000,0.661
55.6400,0.596
55.6800,0.588
55.7200,0.639
55.7600,0.646
55.8000,0.629
55.8400,0.616
55.8800,0.605
55.9200,0.664
55.9600,0.664
56.0000,0.668
56.0400,0.643
56.0800,0.609
56.1200,0.630
56.1600,0.597
56.2000,0.590
56.2400,0.598
56.2800,0.615
56.3200,0.612
56.3600,0.599
56.4000,0.659
56.4400,0.590
56.4800,0.607
56.5200,0.596
56.5600,0.638
56.6000,0.599
56.6400,0.629
56.6800,0.608
56.7200,0.585
56.7600,0.613
56.8000,0.607
56.8400,0.619
56.8800,0.631
56.9200,0.579
56.9600,0.577
57.0000,0.629
57.0400,0.600
57.0800,0.575
57.1200,0.614
57.1600,0.554
57.2000,0.637
57.2400,0.605
57.2800,0.572
57.3200,0.546
57.3600,0.582
57.4000,0.579
57.4400,0.593
57.4800,0.606
57.5200,0.553
57.5600,0.634
57.6000,0.575
57.6400,0.626
57.6800,0.575
57.7200,0.565
57.7600,0.588
57.8000,0.574
57.8400,0.564
57.8800,0.608
57.9200,0.601
57.9600,0.606
58.0000,0.628
58.0400,0.546
58.0800,0.573
58.1200,0.611
58.1600,0.619
58.2000,0.589
58.2400,0.562
58.2800,0.539
58.3200,0.586
58.3600,0.589
58.4000,0.546
58.4400,0.599
58.4800,0.594
58.5200,0.563
58.5600,0.570
58.6000,0.554
58.6400,0.544
58.6800,0.573
58.7200,0.587
58.7600,0.580
58.8000,0.591
58.8400,0.607
58.8800,0.603
58.9200,0.525
58.9600,0.547
59.0000,0.584
59.0400,0.526
59.0800,0.573
59.1200,0.570
59.1600,0.600
59.2000,0.572
59.2400,0.536
59.2800,0.579
59.3200,0.518
59.3600,0.565
59.4000,0.536
59.4400,0.604
59.4800,0.566
59.5200,0.547
59.5600,0.548
59.6000,0.563
59.6400,0.542
59.6800,0.535
59.7200,0.567
59.7600,0.532
59.8000,0.550
59.8400,0.535
59.8800,0.512
59.9200,0.493
59.9600,0.529
60.0000,0.573
60.0400,0.557
60.0800,0.533
60.1200,0.571
60.1600,0.561
60.2000,0.559
60.2400,0.548
60.2800,0.551
60.3200,0.546
60.3600,0.520
60.4000,0.525
60.4400,0.536
60.4800,0.499
60.5200,0.528
60.5600,0.541
60.6000,0.555
60.6400,0.497
60.6800,0.543
60.7200,0.518
60.7600,0.528
60.8000,0.522
60.8400,0.483
60.8800,0.548
60.9200,0.493
60.9600,0.536
61.0000,0.541
61.0400,0.503
61.0800,0.485
61.1200,0.506
61.1600,0.507
61.2000,0.484
61.2400,0.479
61.2800,0.473
61.3200,0.478
61.3600,0.474
61.4000,0.540
61.4400,0.483
61.4800,0.486
61.5200,0.530
61.5600,0.521
61.6000,0.521
61.6400,0.521
61.6800,0.438
61.7200,0.478
61.7600,0.489
61.8000,0.534
61.8400,0.512
61.8800,0.484
61.9200,0.514
61.9600,0.495
62.0000,0.482
62.0400,0.510
62.0800,0.511
62.1200,0.529
62.1600,0.493
62.2000,0.478
62.2400,0.492
62.2800,0.512
62.3200,0.468
62.3600,0.502
