theta,intensity
5.0000,4.574
5.0400,4.552
5.0800,4.518
5.1200,4.522
5.1600,4.484
5.2000,4.383
5.2400,4.427
5.2800,4.421
5.3200,4.415
5.3600,4.307
5.4000,4.530
5.4400,4.439
5.4800,4.318
5.5200,4.376
5.5600,4.495
5.6000,4.423
5.6400,4.367
5.6800,4.312
5.7200,4.410
5.7600,4.398
5.8000,4.326
5.8400,4.276
5.8800,4.268
5.9200,4.348
5.9600,4.224
6.0000,4.084
6.0400,4.138
6.0800,4.216
6.1200,4.219
6.1600,4.160
6.2000,4.196
6.2400,4.294
6.2800,4.181
6.3200,4.122
6.3600,4.214
6.4000,4.058
6.4400,4.236
6.4800,4.285
6.5200,4.265
6.5600,4.216
6.6000,4.101
6.6400,4.157
6.6800,4.124
6.7200,4.087
6.7600,4.261
6.8000,4.112
6.8400,4.181
6.8800,4.042
6.9200,4.168
6.9600,4.120
7.0000,4.034
7.0400,4.120
7.0800,3.917
7.1200,4.154
7.1600,4.049
7.2000,4.044
7.2400,4.097
7.2800,4.064
7.3200,4.150
7.3600,4.102
7.4000,3.940
7.4400,4.093
7.4800,3.963
7.5200,3.921
7.5600,3.964
7.6000,4.115
7.6400,3.893
7.6800,3.971
7.7200,3.973
7.7600,4.029
7.8000,3.804
7.8400,3.961
7.8800,3.975
7.9200,4.022
7.9600,3.871
8.0000,3.831
8.0400,3.802
8.0800,3.874
8.1200,3.844
8.1600,3.793
8.2000,3.929
8.2400,3.828
8.2800,3.808
8.3200,3.957
8.3600,3.883
8.4000,3.814
8.4400,3.888
8.4800,3.680
8.5200,3.717
8.5600,3.834
8.6000,3.707
8.6400,3.841
8.6800,3.839
8.7200,3.772
8.7600,3.747
8.8000,3.726
8.8400,3.746
8.8800,3.719
8.9200,3.663
8.9600,3.813
9.0000,3.734
9.0400,3.788
9.0800,3.736
9.1200,3.768
9.1600,3.700
9.2000,3.696
9.2400,3.718
9.2800,3.739
9.3200,3.772
9.3600,3.680
9.4000,3.610
9.4400,3.759
9.4800,3.703
9.5200,3.680
9.5600,3.624
9.6000,3.621
9.6400,3.685
9.6800,3.707
9.7200,3.710
9.7600,3.603
9.8000,3.706
9.8400,3.590
9.8800,3.592
9.9200,3.632
9.9600,3.629
10.0000,3.709
10.0400,3.648
10.0800,3.575
10.1200,3.747
10.1600,3.652
10.2000,3.626
10.2400,3.634
10.2800,3.721
10.3200,3.571
10.3600,3.548
10.4000,3.532
10.4400,3.630
10.4800,3.576
10.5200,3.549
10.5600,3.644
10.6000,3.544
10.6400,3.576
10.6800,3.525
10.7200,3.686
10.7600,3.545
10.8000,3.533
10.8400,3.532
10.8800,3.557
10.9200,3.578
10.9600,3.477
11.0000,3.521
11.0400,3.506
11.0800,3.519
11.1200,3.587
11.1600,3.513
11.2000,3.501
11.2400,3.487
11.2800,3.485
11.3200,3.435
11.3600,3.453
11.4000,3.572
11.4400,3.502
11.4800,3.483
11.5200,3.469
11.5600,3.521
11.6000,3.513
11.6400,3.461
11.6800,3.599
11.7200,3.488
11.7600,3.434
11.8000,3.374
11.8400,3.470
11.8800,3.475
11.9200,3.450
11.9600,3.509
12.0000,3.411
12.0400,3.507
12.0800,3.409
12.1200,3.528
12.1600,3.319
12.2000,3.479
12.2400,3.413
12.2800,3.332
12.3200,3.382
12.3600,3.473
12.4000,3.510
12.4400,3.270
12.4800,3.370
12.5200,3.334
12.5600,3.278
12.6000,3.291
12.6400,3.361
12.6800,3.331
12.7200,3.357
12.7600,3.329
12.8000,3.394
12.8400,3.357
12.8800,3.276
12.9200,3.346
12.9600,3.362
13.0000,3.283
13.0400,3.244
13.0800,3.272
13.1200,3.136
13.1600,3.312
13.2000,3.250
13.2400,3.312
13.2800,3.259
13.3200,3.233
13.3600,3.306
13.4000,3.406
13.4400,3.403
13.4800,3.280
13.5200,3.292
13.5600,3.245
13.6000,3.403
13.6400,3.214
13.6800,3.350
13.7200,3.162
13.7600,3.336
13.8000,3.262
13.8400,3.283
13.8800,3.208
13.9200,3.179
13.9600,3.346
14.0000,3.205
14.0400,3.165
14.0800,3.371
14.1200,3.269
14.1600,3.171
14.2000,3.208
14.2400,3.295
14.2800,3.252
14.3200,3.145
14.3600,3.259
14.4000,3.212
14.4400,3.232
14.4800,3.093
14.5200,3.209
14.5600,3.163
14.6000,3.175
14.6400,3.155
14.6800,3.255
14.7200,3.128
14.7600,3.164
14.8000,3.090
14.8400,3.228
14.8800,3.219
14.9200,3.204
14.9600,3.205
15.0000,3.223
15.0400,3.197
15.0800,3.308
15.1200,3.131
15.1600,3.130
15.2000,3.231
15.2400,3.293
15.2800,3.286
15.3200,3.149
15.3600,3.084
15.4000,3.131
15.4400,3.207
15.4800,3.123
15.5200,3.118
15.5600,3.029
15.6000,3.094
15.6400,3.056
15.6800,3.029
15.7200,3.069
15.7600,3.074
15.8000,3.098
15.8400,3.123
15.8800,3.008
15.9200,3.050
15.9600,3.020
16.0000,3.046
16.0400,3.211
16.0800,3.164
16.1200,3.170
16.1600,3.086
16.2000,3.149
16.2400,3.143
16.2800,3.188
16.3200,3.086
16.3600,3.129
16.4000,2.907
16.4400,3.053
16.4800,3.103
16.5200,3.082
16.5600,3.132
16.6000,3.007
16.6400,2.991
16.6800,2.984
16.7200,3.195
16.7600,2.972
16.8000,3.029
16.8400,2.980
16.8800,2.943
16.9200,2.868
16.9600,2.960
17.0000,3.004
17.0400,2.944
17.0800,3.009
17.1200,2.934
17.1600,2.952
17.2000,3.046
17.2400,2.943
17.2800,2.988
17.3200,3.030
17.3600,3.016
17.4000,2.879
17.4400,2.955
17.4800,2.974
17.5200,2.929
17.5600,3.016
17.6000,2.868
17.6400,3.015
17.6800,2.926
17.7200,2.883
17.7600,2.804
17.8000,2.959
17.8400,2.981
17.8800,2.943
17.9200,2.822
17.9600,2.846
18.0000,2.943
18.0400,2.888
18.0800,2.805
18.1200,3.019
18.1600,2.865
18.2000,2.938
18.2400,2.840
18.2800,2.909
18.3200,2.773
18.3600,2.801
18.4000,2.873
18.4400,2.845
18.4800,2.908
18.5200,2.912
18.5600,2.742
18.6000,2.771
18.6400,2.861
18.6800,2.870
18.7200,2.798
18.7600,2.832
18.8000,2.839
18.8400,2.930
18.8800,2.798
18.9200,2.751
18.9600,2.846
19.0000,2.732
19.0400,2.868
19.0800,2.816
19.1200,2.831
19.1600,2.809
19.2000,2.823
19.2400,2.846
19.2800,2.745
19.3200,2.810
19.3600,2.734
19.4000,2.770
19.4400,2.718
19.4800,2.728
19.5200,2.756
19.5600,2.779
19.6000,2.729
19.6400,2.747
19.6800,2.787
19.7200,2.811
19.7600,2.766
19.8000,2.675
19.8400,2.720
19.8800,2.705
19.9200,2.640
19.9600,2.722
20.0000,2.716
20.0400,2.717
20.0800,2.782
20.1200,2.732
20.1600,2.705
20.2000,2.759
20.2400,2.719
20.2800,2.674
20.3200,2.667
20.3600,2.742
20.4000,2.624
20.4400,2.776
20.4800,2.737
20.5200,2.748
20.5600,2.650
20.6000,2.772
20.6400,2.664
20.6800,2.686
20.7200,2.653
20.7600,2.653
20.8000,2.593
20.8400,2.732
20.8800,2.696
20.9200,2.609
20.9600,2.715
21.0000,2.611
21.0400,2.661
21.0800,2.630
21.1200,2.656
21.1600,2.611
21.2000,2.609
21.2400,2.614
21.2800,2.529
21.3200,2.521
21.3600,2.539
21.4000,2.609
21.4400,2.711
21.4800,2.563
21.5200,2.607
21.5600,2.494
21.6000,2.553
21.6400,2.603
21.6800,2.605
21.7200,2.565
21.7600,2.678
21.8000,2.622
21.8400,2.611
21.8800,2.577
21.9200,2.613
21.9600,2.524
22.0000,2.608
22.0400,2.588
22.0800,2.589
22.1200,2.548
22.1600,2.618
22.2000,2.622
22.2400,2.569
22.2800,2.594
22.3200,2.571
22.3600,2.531
22.4000,2.585
22.4400,2.715
22.4800,2.567
22.5200,2.513
22.5600,2.530
22.6000,2.547
22.6400,2.591
22.6800,2.676
22.7200,2.649
22.7600,2.540
22.8000,2.549
22.8400,2.544
22.8800,2.650
22.9200,2.630
22.9600,2.637
23.0000,2.677
23.0400,2.894
23.0800,3.197
23.1200,3.905
23.1600,5.752
23.2000,7.379
23.2400,6.619
23.2800,5.075
23.3200,3.640
23.3600,3.010
23.4000,2.833
23.4400,2.861
23.4800,2.721
23.5200,2.677
23.5600,2.726
23.6000,2.620
23.6400,2.644
23.6800,2.591
23.7200,2.519
23.7600,2.517
23.8000,2.556
23.8400,2.452
23.8800,2.553
23.9200,2.498
23.9600,2.495
24.0000,2.507
24.0400,2.650
24.0800,2.388
24.1200,2.452
24.1600,2.395
24.2000,2.433
24.2400,2.449
24.2800,2.406
24.3200,2.482
24.3600,2.417
24.4000,2.466
24.4400,2.372
24.4800,2.467
24.5200,2.502
24.5600,2.531
24.6000,2.528
24.6400,2.380
24.6800,2.455
24.7200,2.368
24.7600,2.404
24.8000,2.370
24.8400,2.360
24.8800,2.281
24.9200,2.344
24.9600,2.314
25.0000,2.395
25.0400,2.326
25.0800,2.366
25.1200,2.324
25.1600,2.372
25.2000,2.327
25.2400,2.347
25.2800,2.496
25.3200,2.334
25.3600,2.288
25.4000,2.410
25.4400,2.385
25.4800,2.264
25.5200,2.289
25.5600,2.350
25.6000,2.371
25.6400,2.369
25.6800,2.456
25.7200,2.356
25.7600,2.292
25.8000,2.287
25.8400,2.305
25.8800,2.259
25.9200,2.264
25.9600,2.313
26.0000,2.382
26.0400,2.357
26.0800,2.319
26.1200,2.195
26.1600,2.267
26.2000,2.300
26.2400,2.316
26.2800,2.347
26.3200,2.315
26.3600,2.361
26.4000,2.289
26.4400,2.273
26.4800,2.389
26.5200,2.217
26.5600,2.244
26.6000,2.203
26.6400,2.221
26.6800,2.269
26.7200,2.211
26.7600,2.274
26.8000,2.274
26.8400,2.178
26.8800,2.330
26.9200,2.265
26.9600,2.233
27.0000,2.282
27.0400,2.222
27.0800,2.284
27.1200,2.190
27.1600,2.302
27.2000,2.221
27.2400,2.248
27.2800,2.235
27.3200,2.266
27.3600,2.226
27.4000,2.276
27.4400,2.367
27.4800,2.251
27.5200,2.197
27.5600,2.203
27.6000,2.187
27.6400,2.268
27.6800,2.299
27.7200,2.227
27.7600,2.297
27.8000,2.247
27.8400,2.293
27.8800,2.286
27.9200,2.384
27.9600,2.269
28.0000,2.322
28.0400,2.327
28.0800,2.251
28.1200,2.293
28.1600,2.182
28.2000,2.250
28.2400,2.419
28.2800,2.290
28.3200,2.384
28.3600,2.283
28.4000,2.356
28.4400,2.277
28.4800,2.400
28.5200,2.388
28.5600,2.264
28.6000,2.327
28.6400,2.290
28.6800,2.275
28.7200,2.256
28.7600,2.366
28.8000,2.430
28.8400,2.387
28.8800,2.291
28.9200,2.417
28.9600,2.280
29.0000,2.310
29.0400,2.367
29.0800,2.307
29.1200,2.224
29.1600,2.230
29.2000,2.197
29.2400,2.237
29.2800,2.253
29.3200,2.199
29.3600,2.195
29.4000,2.179
29.4400,2.161
29.4800,2.180
29.5200,2.182
29.5600,2.220
29.6000,2.181
29.6400,2.125
29.6800,2.218
29.7200,2.142
29.7600,2.140
29.8000,2.165
29.8400,2.118
29.8800,2.212
29.9200,2.096
29.9600,2.126
30.0000,2.122
30.0400,2.133
30.0800,2.171
30.1200,2.123
30.1600,2.208
30.2000,2.220
30.2400,2.207
30.2800,2.232
30.3200,2.247
30.3600,2.240
30.4000,2.311
30.4400,2.256
30.4800,2.380
30.5200,2.224
30.5600,2.159
30.6000,2.191
30.6400,2.118
30.6800,2.046
30.7200,2.048
30.7600,2.114
30.8000,2.029
30.8400,2.090
30.8800,2.039
30.9200,2.002
30.9600,2.017
31.0000,1.972
31.0400,1.987
31.0800,1.999
31.1200,1.977
31.1600,1.945
31.2000,1.946
31.2400,1.900
31.2800,1.917
31.3200,1.936
31.3600,1.889
31.4000,1.894
31.4400,1.876
31.4800,1.856
31.5200,1.911
31.5600,1.890
31.6000,1.866
31.6400,1.880
31.6800,2.009
31.7200,1.901
31.7600,1.979
31.8000,1.908
31.8400,2.042
31.8800,2.420
31.9200,2.409
31.9600,2.379
32.0000,2.161
32.0400,1.980
32.0800,2.014
32.1200,1.950
32.1600,1.893
32.2000,1.926
32.2400,1.887
32.2800,1.905
32.3200,1.916
32.3600,1.852
32.4000,1.891
32.4400,1.959
32.4800,1.948
32.5200,1.950
32.5600,1.971
32.6000,2.047
32.6400,2.047
32.6800,2.030
32.7200,2.103
32.7600,2.272
32.8000,2.528
32.8400,2.801
32.8800,3.460
32.9200,5.268
32.9600,12.033
33.0000,21.085
33.0400,18.216
33.0800,15.284
33.1200,10.874
33.1600,5.814
33.2000,3.848
33.2400,3.053
33.2800,2.653
33.3200,2.468
33.3600,2.191
33.4000,2.133
33.4400,2.045
33.4800,2.043
33.5200,1.938
33.5600,1.864
33.6000,1.858
33.6400,1.840
33.6800,1.875
33.7200,1.738
33.7600,1.789
33.8000,1.820
33.8400,1.791
33.8800,1.802
33.9200,1.786
33.9600,1.769
34.0000,1.748
34.0400,1.780
34.0800,1.695
34.1200,1.685
34.1600,1.660
34.2000,1.673
34.2400,1.689
34.2800,1.686
34.3200,1.658
34.3600,1.687
34.4000,1.651
34.4400,1.703
34.4800,1.637
34.5200,1.623
34.5600,1.704
34.6000,1.688
34.6400,1.657
34.6800,1.659
34.7200,1.609
34.7600,1.746
34.8000,1.825
34.8400,1.903
34.8800,1.850
34.9200,1.738
34.9600,1.704
35.0000,1.682
35.0400,1.684
35.0800,1.568
35.1200,1.551
35.1600,1.566
35.2000,1.579
35.2400,1.528
35.2800,1.630
35.3200,1.627
35.3600,1.643
35.4000,1.607
35.4400,1.569
35.4800,1.634
35.5200,1.661
35.5600,1.511
35.6000,1.536
35.6400,1.604
35.6800,1.591
35.7200,1.555
35.7600,1.539
35.8000,1.520
35.8400,1.595
35.8800,1.547
35.9200,1.570
35.9600,1.546
36.0000,1.593
36.0400,1.554
36.0800,1.569
36.1200,1.543
36.1600,1.524
36.2000,1.604
36.2400,1.619
36.2800,1.629
36.3200,1.590
36.3600,1.515
36.4000,1.649
36.4400,1.718
36.4800,1.558
36.5200,1.574
36.5600,1.607
36.6000,1.531
36.6400,1.553
36.6800,1.514
36.7200,1.537
36.7600,1.536
36.8000,1.594
36.8400,1.533
36.8800,1.583
36.9200,1.472
36.9600,1.518
37.0000,1.520
37.0400,1.482
37.0800,1.449
37.1200,1.422
37.1600,1.468
37.2000,1.357
37.2400,1.488
37.2800,1.493
37.3200,1.452
37.3600,1.402
37.4000,1.477
37.4400,1.473
37.4800,1.433
37.5200,1.485
37.5600,1.432
37.6000,1.485
37.6400,1.389
37.6800,1.432
37.7200,1.454
37.7600,1.478
37.8000,1.565
37.8400,1.453
37.8800,1.486
37.9200,1.557
37.9600,1.513
38.0000,1.500
38.0400,1.537
38.0800,1.580
38.1200,1.642
38.1600,1.708
38.2000,1.814
38.2400,2.009
38.2800,2.118
38.3200,2.158
38.3600,2.401
38.4000,3.413
38.4400,4.057
38.4800,3.431
38.5200,3.144
38.5600,2.758
38.6000,2.196
38.6400,1.747
38.6800,1.555
38.7200,1.657
38.7600,1.550
38.8000,1.539
38.8400,1.506
38.8800,1.409
38.9200,1.427
38.9600,1.450
39.0000,1.356
39.0400,1.353
39.0800,1.434
39.1200,1.411
39.1600,1.443
39.2000,1.403
39.2400,1.384
39.2800,1.407
39.3200,1.348
39.3600,1.333
39.4000,1.327
39.4400,1.353
39.4800,1.291
39.5200,1.338
39.5600,1.317
39.6000,1.310
39.6400,1.401
39.6800,1.370
39.7200,1.297
39.7600,1.336
39.8000,1.323
39.8400,1.383
39.8800,1.298
39.9200,1.300
39.9600,1.382
40.0000,1.320
40.0400,1.311
40.0800,1.333
40.1200,1.392
40.1600,1.436
40.2000,1.323
40.2400,1.329
40.2800,1.386
40.3200,1.330
40.3600,1.446
40.4000,1.405
40.4400,1.445
40.4800,1.552
40.5200,1.688
40.5600,1.835
40.6000,2.470
40.6400,5.326
40.6800,11.227
40.7200,11.394
40.7600,8.592
40.8000,7.855
40.8400,5.851
40.8800,3.088
40.9200,1.943
40.9600,1.613
41.0000,1.464
41.0400,1.420
41.0800,1.411
41.1200,1.354
41.1600,1.308
41.2000,1.305
41.2400,1.277
41.2800,1.331
41.3200,1.280
41.3600,1.288
41.4000,1.245
41.4400,1.303
41.4800,1.188
41.5200,1.233
41.5600,1.264
41.6000,1.179
41.6400,1.237
41.6800,1.300
41.7200,1.275
41.7600,1.206
41.8000,1.228
41.8400,1.166
41.8800,1.179
41.9200,1.187
41.9600,1.198
42.0000,1.232
42.0400,1.229
42.0800,1.170
42.1200,1.260
42.1600,1.199
42.2000,1.207
42.2400,1.243
42.2800,1.180
42.3200,1.179
42.3600,1.195
42.4000,1.179
42.4400,1.215
42.4800,1.261
42.5200,1.140
42.5600,1.194
42.6000,1.182
42.6400,1.139
42.6800,1.173
42.7200,1.137
42.7600,1.113
42.8000,1.126
42.8400,1.137
42.8800,1.203
42.9200,1.193
42.9600,1.126
43.0000,1.147
43.0400,1.167
43.0800,1.108
43.1200,1.142
43.1600,1.165
43.2000,1.141
43.2400,1.180
43.2800,1.086
43.3200,1.178
43.3600,1.167
43.4000,1.214
43.4400,1.251
43.4800,1.224
43.5200,1.228
43.5600,1.202
43.6000,1.203
43.6400,1.210
43.6800,1.100
43.7200,1.140
43.7600,1.158
43.8000,1.178
43.8400,1.201
43.8800,1.231
43.9200,1.180
43.9600,1.160
44.0000,1.093
44.0400,1.126
44.0800,1.120
44.1200,1.113
44.1600,1.160
44.2000,1.076
44.2400,1.116
44.2800,1.182
44.3200,1.089
44.3600,1.145
44.4000,1.121
44.4400,1.147
44.4800,1.094
44.5200,1.063
44.5600,1.076
44.6000,1.057
44.6400,1.061
44.6800,1.079
44.7200,1.075
44.7600,1.068
44.8000,1.069
44.8400,1.072
44.8800,1.106
44.9200,1.070
44.9600,1.040
45.0000,1.097
45.0400,1.099
45.0800,1.035
45.1200,1.031
45.1600,1.003
45.2000,1.023
45.2400,1.051
45.2800,0.986
45.3200,1.063
45.3600,1.062
45.4000,1.041
45.4400,1.068
45.4800,1.079
45.5200,1.035
45.5600,1.001
45.6000,1.024
45.6400,1.046
45.6800,1.053
45.7200,1.082
45.7600,0.983
45.8000,1.080
45.8400,1.024
45.8800,1.054
45.9200,0.957
45.9600,0.976
46.0000,1.029
46.0400,0.971
46.0800,0.964
46.1200,1.014
46.1600,1.026
46.2000,1.046
46.2400,1.004
46.2800,0.964
46.3200,1.026
46.3600,1.018
46.4000,1.043
46.4400,0.994
46.4800,0.991
46.5200,0.982
46.5600,1.052
46.6000,0.993
46.6400,0.994
46.6800,0.983
46.7200,1.017
46.7600,1.002
46.8000,1.030
46.8400,0.996
46.8800,1.048
46.9200,1.068
46.9600,0.958
47.0000,1.070
47.0400,1.051
47.0800,1.040
47.1200,1.073
47.1600,1.140
47.2000,1.200
47.2400,1.327
47.2800,1.576
47.3200,2.086
47.3600,2.304
47.4000,1.924
47.4400,1.763
47.4800,1.709
47.5200,1.434
47.5600,1.188
47.6000,1.105
47.6400,1.092
47.6800,1.020
47.7200,0.983
47.7600,1.025
47.8000,0.999
47.8400,1.099
47.8800,1.205
47.9200,1.244
47.9600,1.131
48.0000,1.124
48.0400,1.093
48.0800,1.053
48.1200,1.002
48.1600,0.994
48.2000,1.004
48.2400,1.008
48.2800,1.010
48.3200,0.947
48.3600,0.981
48.4000,0.944
48.4400,0.896
48.4800,0.987
48.5200,0.992
48.5600,0.959
48.6000,0.997
48.6400,0.972
48.6800,0.946
48.7200,0.905
48.7600,0.947
48.8000,0.959
48.8400,0.981
48.8800,0.932
48.9200,0.906
48.9600,0.940
49.0000,0.958
49.0400,0.938
49.0800,0.910
49.1200,0.959
49.1600,0.936
49.2000,0.915
49.2400,0.956
49.2800,0.947
49.3200,0.958
49.3600,0.952
49.4000,0.964
49.4400,0.961
49.4800,0.969
49.5200,0.992
49.5600,0.926
49.6000,0.954
49.6400,0.982
49.6800,0.986
49.7200,0.946
49.7600,0.982
49.8000,0.948
49.8400,0.973
49.8800,1.012
49.9200,1.015
49.9600,0.968
50.0000,0.984
50.0400,0.926
50.0800,0.902
50.1200,0.941
50.1600,0.959
50.2000,0.927
50.2400,0.945
50.2800,0.909
50.3200,0.998
50.3600,0.905
50.4000,0.924
50.4400,0.882
50.4800,0.954
50.5200,0.926
50.5600,0.862
50.6000,0.857
50.6400,0.897
50.6800,0.876
50.7200,0.884
50.7600,0.776
50.8000,0.910
50.8400,0.874
50.8800,0.927
50.9200,0.897
50.9600,0.842
51.0000,0.844
51.0400,0.855
51.0800,0.890
51.1200,0.876
51.1600,0.872
51.2000,0.821
51.2400,0.800
51.2800,0.857
51.3200,0.854
51.3600,0.830
51.4000,0.841
51.4400,0.873
51.4800,0.882
51.5200,0.799
51.5600,0.850
51.6000,0.813
51.6400,0.836
51.6800,0.811
51.7200,0.819
51.7600,0.862
51.8000,0.885
51.8400,0.834
51.8800,0.895
51.9200,0.843
51.9600,0.833
52.0000,0.875
52.0400,0.812
52.0800,0.815
52.1200,0.811
52.1600,0.788
52.2000,0.821
52.2400,0.818
52.2800,0.814
52.3200,0.852
52.3600,0.835
52.4000,0.832
52.4400,0.796
52.4800,0.852
52.5200,0.856
52.5600,0.849
52.6000,0.810
52.6400,0.829
52.6800,0.858
52.7200,0.794
52.7600,0.843
52.8000,0.823
52.8400,0.787
52.8800,0.842
52.9200,0.832
52.9600,0.879
53.0000,0.883
53.0400,0.855
53.0800,0.875
53.1200,0.938
53.1600,0.985
53.2000,1.115
53.2400,1.294
53.2800,1.944
53.3200,2.478
53.3600,2.288
53.4000,1.711
53.4400,1.847
53.4800,1.783
53.5200,1.395
53.5600,1.109
53.6000,1.016
53.6400,0.983
53.6800,0.917
53.7200,0.851
53.7600,0.857
53.8000,0.806
53.8400,0.864
53.8800,0.792
53.9200,0.767
53.9600,0.725
54.0000,0.793
54.0400,0.807
54.0800,0.824
54.1200,0.820
54.1600,0.742
54.2000,0.775
54.2400,0.749
54.2800,0.796
54.3200,0.791
54.3600,0.693
54.4000,0.802
54.4400,0.762
54.4800,0.778
54.5200,0.824
54.5600,0.841
54.6000,0.776
54.6400,0.767
54.6800,0.819
54.7200,0.769
54.7600,0.797
54.8000,0.765
54.8400,0.796
54.8800,0.847
54.9200,0.873
54.9600,0.828
55.0000,0.827
55.0400,0.849
55.0800,0.914
55.1200,0.922
55.1600,0.926
55.2000,0.958
55.2400,1.065
55.2800,1.118
55.3200,1.115
55.3600,1.167
55.4000,1.175
55.4400,1.131
55.4800,1.071
55.5200,1.044
55.5600,0.963
55.6000,0.993
55.6400,0.941
55.6800,0.882
55.7200,0.822
55.7600,0.796
55.8000,0.817
55.8400,0.760
55.8800,0.773
55.9200,0.743
55.9600,0.808
56.0000,0.770
56.0400,0.756
56.0800,0.732
56.1200,0.738
56.1600,0.673
56.2000,0.712
56.2400,0.723
56.2800,0.702
56.3200,0.772
56.3600,0.722
56.4000,0.723
56.4400,0.751
56.4800,0.738
56.5200,0.681
56.5600,0.707
56.6000,0.713
56.6400,0.704
56.6800,0.696
56.7200,0.725
56.7600,0.713
56.8000,0.681
56.8400,0.725
56.8800,0.680
56.9200,0.704
56.9600,0.668
57.0000,0.677
57.0400,0.694
57.0800,0.709
57.1200,0.705
57.1600,0.768
57.2000,0.719
57.2400,0.687
57.2800,0.682
57.3200,0.666
57.3600,0.701
57.4000,0.733
57.4400,0.671
57.4800,0.707
57.5200,0.638
57.5600,0.740
57.6000,0.776
57.6400,0.845
57.6800,0.731
57.7200,0.737
57.7600,0.753
57.8000,0.735
57.8400,0.689
57.8800,0.694
57.9200,0.751
57.9600,0.721
58.0000,0.732
58.0400,0.678
58.0800,0.677
58.1200,0.731
58.1600,0.705
58.2000,0.725
58.2400,0.729
58.2800,0.765
58.3200,0.760
58.3600,0.738
58.4000,0.735
58.4400,0.746
58.4800,0.762
58.5200,0.765
58.5600,0.789
58.6000,0.798
58.6400,0.901
58.6800,0.876
58.7200,0.929
58.7600,1.108
58.8000,1.593
58.8400,3.095
58.8800,3.737
58.9200,2.853
58.9600,1.974
59.0000,2.204
59.0400,2.312
59.0800,1.766
59.1200,1.195
59.1600,0.931
59.2000,0.817
59.2400,0.731
59.2800,0.773
59.3200,0.749
59.3600,0.697
59.4000,0.693
59.4400,0.737
59.4800,0.681
59.5200,0.691
59.5600,0.666
59.6000,0.689
59.6400,0.702
59.6800,0.652
59.7200,0.627
59.7600,0.672
59.8000,0.681
59.8400,0.685
59.8800,0.658
59.9200,0.646
59.9600,0.661
60.0000,0.669
60.0400,0.608
60.0800,0.639
60.1200,0.663
60.1600,0.630
60.2000,0.650
60.2400,0.652
60.2800,0.654
60.3200,0.648
60.3600,0.680
60.4000,0.616
60.4400,0.626
60.4800,0.608
60.5200,0.633
60.5600,0.648
60.6000,0.620
60.6400,0.595
60.6800,0.629
60.7200,0.623
60.7600,0.666
60.8000,0.619
60.8400,0.653
60.8800,0.604
60.9200,0.628
60.9600,0.619
61.0000,0.625
61.0400,0.642
61.0800,0.668
61.1200,0.780
61.1600,0.837
61.2000,0.829
61.2400,0.706
61.2800,0.664
61.3200,0.775
61.3600,0.771
61.4000,0.635
61.4400,0.624
61.4800,0.621
61.5200,0.636
61.5600,0.611
61.6000,0.634
61.6400,0.646
61.6800,0.611
61.7200,0.642
61.7600,0.641
61.8000,0.585
61.8400,0.639
61.8800,0.570
61.9200,0.610
61.9600,0.595
62.0000,0.612
62.0400,0.588
62.0800,0.591
62.1200,0.561
62.1600,0.577
62.2000,0.596
62.2400,0.558
62.2800,0.592
62.3200,0.674
62.3600,0.710
