theta,intensity
5.0000,2.148
5.0400,2.326
5.0800,2.093
5.1200,2.215
5.1600,2.203
5.2000,2.186
5.2400,2.126
5.2800,2.124
5.3200,2.098
5.3600,2.059
5.4000,2.028
5.4400,2.100
5.4800,2.093
5.5200,2.093
5.5600,1.970
5.6000,2.055
5.6400,2.005
5.6800,1.996
5.7200,1.901
5.7600,1.948
5.8000,1.905
5.8400,1.871
5.8800,1.869
5.9200,1.801
5.9600,1.877
6.0000,1.841
6.0400,1.788
6.0800,1.789
6.1200,1.800
6.1600,1.789
6.2000,1.702
6.2400,1.715
6.2800,1.685
6.3200,1.675
6.3600,1.669
6.4000,1.625
6.4400,1.626
6.4800,1.716
6.5200,1.598
6.5600,1.589
6.6000,1.597
6.6400,1.606
6.6800,1.580
6.7200,1.589
6.7600,1.549
6.8000,1.523
6.8400,1.550
6.8800,1.485
6.9200,1.535
6.9600,1.513
7.0000,1.514
7.0400,1.484
7.0800,1.503
7.1200,1.501
7.1600,1.508
7.2000,1.525
7.2400,1.508
7.2800,1.435
7.3200,1.460
7.3600,1.441
7.4000,1.490
7.4400,1.427
7.4800,1.455
7.5200,1.488
7.5600,1.462
7.6000,1.475
7.6400,1.485
7.6800,1.458
7.7200,1.444
7.7600,1.412
7.8000,1.409
7.8400,1.434
7.8800,1.452
7.9200,1.502
7.9600,1.486
8.0000,1.374
8.0400,1.436
8.0800,1.413
8.1200,1.441
8.1600,1.433
8.2000,1.463
8.2400,1.425
8.2800,1.480
8.3200,1.456
8.3600,1.453
8.4000,1.414
8.4400,1.462
8.4800,1.460
8.5200,1.420
8.5600,1.450
8.6000,1.404
8.6400,1.403
8.6800,1.417
8.7200,1.397
8.7600,1.401
8.8000,1.420
8.8400,1.356
8.8800,1.433
8.9200,1.432
8.9600,1.365
9.0000,1.424
9.0400,1.431
9.0800,1.458
9.1200,1.408
9.1600,1.458
9.2000,1.461
9.2400,1.393
9.2800,1.454
9.3200,1.472
9.3600,1.466
9.4000,1.400
9.4400,1.458
9.4800,1.395
9.5200,1.380
9.5600,1.406
9.6000,1.413
9.6400,1.425
9.6800,1.387
9.7200,1.409
9.7600,1.359
9.8000,1.387
9.8400,1.367
9.8800,1.357
9.9200,1.368
9.9600,1.382
10.0000,1.376
10.0400,1.387
10.0800,1.382
10.1200,1.361
10.1600,1.349
10.2000,1.363
10.2400,1.429
10.2800,1.405
10.3200,1.383
10.3600,1.393
10.4000,1.349
10.4400,1.380
10.4800,1.378
10.5200,1.414
10.5600,1.340
10.6000,1.400
10.6400,1.400
10.6800,1.357
10.7200,1.366
10.7600,1.311
10.8000,1.386
10.8400,1.316
10.8800,1.353
10.9200,1.352
10.9600,1.343
11.0000,1.370
11.0400,1.357
11.0800,1.348
11.1200,1.328
11.1600,1.372
11.2000,1.283
11.2400,1.374
11.2800,1.364
11.3200,1.366
11.3600,1.348
11.4000,1.397
11.4400,1.319
11.4800,1.353
11.5200,1.326
11.5600,1.324
11.6000,1.324
11.6400,1.335
11.6800,1.342
11.7200,1.372
11.7600,1.307
11.8000,1.268
11.8400,1.310
11.8800,1.348
11.9200,1.293
11.9600,1.311
12.0000,1.307
12.0400,1.336
12.0800,1.291
12.1200,1.326
12.1600,1.318
12.2000,1.347
12.2400,1.333
12.2800,1.321
12.3200,1.308
12.3600,1.359
12.4000,1.328
12.4400,1.289
12.4800,1.310
12.5200,1.298
12.5600,1.294
12.6000,1.347
12.6400,1.323
12.6800,1.319
12.7200,1.331
12.7600,1.269
12.8000,1.272
12.8400,1.272
12.8800,1.317
12.9200,1.304
12.9600,1.348
13.0000,1.280
13.0400,1.276
13.0800,1.279
13.1200,1.259
13.1600,1.253
13.2000,1.308
13.2400,1.273
13.2800,1.249
13.3200,1.266
13.3600,1.279
13.4000,1.253
13.4400,1.259
13.4800,1.281
13.5200,1.278
13.5600,1.291
13.6000,1.276
13.6400,1.242
13.6800,1.251
13.7200,1.290
13.7600,1.271
13.8000,1.268
13.8400,1.234
13.8800,1.249
13.9200,1.284
13.9600,1.273
14.0000,1.290
14.0400,1.254
14.0800,1.254
14.1200,1.236
14.1600,1.231
14.2000,1.263
14.2400,1.231
14.2800,1.287
14.3200,1.277
14.3600,1.219
14.4000,1.205
14.4400,1.220
14.4800,1.245
14.5200,1.228
14.5600,1.220
14.6000,1.245
14.6400,1.297
14.6800,1.288
14.7200,1.291
14.7600,1.203
14.8000,1.237
14.8400,1.215
14.8800,1.248
14.9200,1.195
14.9600,1.234
15.0000,1.214
15.0400,1.222
15.0800,1.237
15.1200,1.261
15.1600,1.233
15.2000,1.190
15.2400,1.203
15.2800,1.201
15.3200,1.247
15.3600,1.233
15.4000,1.178
15.4400,1.234
15.4800,1.234
15.5200,1.245
15.5600,1.214
15.6000,1.206
15.6400,1.238
15.6800,1.218
15.7200,1.180
15.7600,1.204
15.8000,1.189
15.8400,1.240
15.8800,1.193
15.9200,1.243
15.9600,1.182
16.0000,1.238
16.0400,1.244
16.0800,1.164
16.1200,1.211
16.1600,1.223
16.2000,1.224
16.2400,1.246
16.2800,1.191
16.3200,1.184
16.3600,1.232
16.4000,1.163
16.4400,1.186
16.4800,1.171
16.5200,1.183
16.5600,1.204
16.6000,1.212
16.6400,1.209
16.6800,1.193
16.7200,1.192
16.7600,1.151
16.8000,1.195
16.8400,1.172
16.8800,1.177
16.9200,1.163
16.9600,1.137
17.0000,1.192
17.0400,1.186
17.0800,1.190
17.1200,1.201
17.1600,1.198
17.2000,1.241
17.2400,1.180
17.2800,1.227
17.3200,1.179
17.3600,1.203
17.4000,1.200
17.4400,1.154
17.4800,1.211
17.5200,1.233
17.5600,1.231
17.6000,1.204
17.6400,1.172
17.6800,1.185
17.7200,1.159
17.7600,1.162
17.8000,1.219
17.8400,1.122
17.8800,1.197
17.9200,1.197
17.9600,1.186
18.0000,1.184
18.0400,1.136
18.0800,1.145
18.1200,1.127
18.1600,1.173
18.2000,1.222
18.2400,1.167
18.2800,1.156
18.3200,1.139
18.3600,1.166
18.4000,1.213
18.4400,1.194
18.4800,1.167
18.5200,1.144
18.5600,1.171
18.6000,1.159
18.6400,1.190
18.6800,1.179
18.7200,1.212
18.7600,1.131
18.8000,1.199
18.8400,1.133
18.8800,1.186
18.9200,1.145
18.9600,1.134
19.0000,1.195
19.0400,1.161
19.0800,1.217
19.1200,1.152
19.1600,1.113
19.2000,1.113
19.2400,1.161
19.2800,1.172
19.3200,1.210
19.3600,1.153
19.4000,1.182
19.4400,1.123
19.4800,1.194
19.5200,1.132
19.5600,1.158
19.6000,1.156
19.6400,1.159
19.6800,1.135
19.7200,1.172
19.7600,1.155
19.8000,1.171
19.8400,1.173
19.8800,1.157
19.9200,1.169
19.9600,1.135
20.0000,1.125
20.0400,1.139
20.0800,1.130
20.1200,1.136
20.1600,1.118
20.2000,1.149
20.2400,1.115
20.2800,1.095
20.3200,1.123
20.3600,1.147
20.4000,1.149
20.4400,1.103
20.4800,1.110
20.5200,1.141
20.5600,1.121
20.6000,1.166
20.6400,1.125
20.6800,1.147
20.7200,1.167
20.7600,1.139
20.8000,1.156
20.8400,1.145
20.8800,1.126
20.9200,1.128
20.9600,1.154
21.0000,1.094
21.0400,1.106
21.0800,1.108
21.1200,1.110
21.1600,1.123
21.2000,1.140
21.2400,1.141
21.2800,1.149
21.3200,1.148
21.3600,1.143
21.4000,1.123
21.4400,1.120
21.4800,1.112
21.5200,1.083
21.5600,1.095
21.6000,1.108
21.6400,1.133
21.6800,1.101
21.7200,1.079
21.7600,1.080
21.8000,1.106
21.8400,1.081
21.8800,1.087
21.9200,1.127
21.9600,1.129
22.0000,1.049
22.0400,1.088
22.0800,1.119
22.1200,1.058
22.1600,1.136
22.2000,1.082
22.2400,1.066
22.2800,1.076
22.3200,1.003
22.3600,1.073
22.4000,1.034
22.4400,1.033
22.4800,1.041
22.5200,1.034
22.5600,1.012
22.6000,1.031
22.6400,1.029
22.6800,1.052
22.7200,1.047
22.7600,1.035
22.8000,1.073
22.8400,1.032
22.8800,1.087
22.9200,1.074
22.9600,0.998
23.0000,1.054
23.0400,1.017
23.0800,1.064
23.1200,1.034
23.1600,1.036
23.2000,1.034
23.2400,1.046
23.2800,1.046
23.3200,1.072
23.3600,1.013
23.4000,0.992
23.4400,1.021
23.4800,1.032
23.5200,0.986
23.5600,1.010
23.6000,0.992
23.6400,0.993
23.6800,1.039
23.7200,0.960
23.7600,0.996
23.8000,1.014
23.8400,1.024
23.8800,1.038
23.9200,1.026
23.9600,0.995
24.0000,1.006
24.0400,0.965
24.0800,0.989
24.1200,1.032
24.1600,0.977
24.2000,0.996
24.2400,0.937
24.2800,0.958
24.3200,1.000
24.3600,0.987
24.4000,0.976
24.4400,0.991
24.4800,0.970
24.5200,1.015
24.5600,0.953
24.6000,0.970
24.6400,0.966
24.6800,0.971
24.7200,0.965
24.7600,0.973
24.8000,1.009
24.8400,0.930
24.8800,0.955
24.9200,0.967
24.9600,0.957
25.0000,0.958
25.0400,0.941
25.0800,0.931
25.1200,0.994
25.1600,0.969
25.2000,0.999
25.2400,0.944
25.2800,0.918
25.3200,0.958
25.3600,0.900
25.4000,0.937
25.4400,0.915
25.4800,0.907
25.5200,0.927
25.5600,0.913
25.6000,0.913
25.6400,0.895
25.6800,0.944
25.7200,0.891
25.7600,0.898
25.8000,0.896
25.8400,0.894
25.8800,0.854
25.9200,0.924
25.9600,0.888
26.0000,0.839
26.0400,0.872
26.0800,0.871
26.1200,0.861
26.1600,0.868
26.2000,0.860
26.2400,0.892
26.2800,0.869
26.3200,0.852
26.3600,0.858
26.4000,0.884
26.4400,0.852
26.4800,0.837
26.5200,0.846
26.5600,0.836
26.6000,0.846
26.6400,0.855
26.6800,0.808
26.7200,0.795
26.7600,0.820
26.8000,0.815
26.8400,0.857
26.8800,0.819
26.9200,0.838
26.9600,0.804
27.0000,0.833
27.0400,0.844
27.0800,0.810
27.1200,0.805
27.1600,0.856
27.2000,0.817
27.2400,0.793
27.2800,0.800
27.3200,0.783
27.3600,0.783
27.4000,0.796
27.4400,0.786
27.4800,0.783
27.5200,0.804
27.5600,0.786
27.6000,0.818
27.6400,0.755
27.6800,0.748
27.7200,0.744
27.7600,0.782
27.8000,0.793
27.8400,0.781
27.8800,0.751
27.9200,0.763
27.9600,0.749
28.0000,0.778
28.0400,0.796
28.0800,0.793
28.1200,0.755
28.1600,0.755
28.2000,0.759
28.2400,0.742
28.2800,0.766
28.3200,0.717
28.3600,0.733
28.4000,0.761
28.4400,0.770
28.4800,0.710
28.5200,0.724
28.5600,0.773
28.6000,0.747
28.6400,0.737
28.6800,0.713
28.7200,0.723
28.7600,0.730
28.8000,0.746
28.8400,0.733
28.8800,0.737
28.9200,0.731
28.9600,0.710
29.0000,0.690
29.0400,0.743
29.0800,0.765
29.1200,0.756
29.1600,0.723
29.2000,0.743
29.2400,0.717
29.2800,0.741
29.3200,0.694
29.3600,0.691
29.4000,0.716
29.4400,0.673
29.4800,0.709
29.5200,0.724
29.5600,0.708
29.6000,0.693
29.6400,0.721
29.6800,0.698
29.7200,0.723
29.7600,0.741
29.8000,0.764
29.8400,0.784
29.8800,0.828
29.9200,0.890
29.9600,0.972
30.0000,0.984
30.0400,0.994
30.0800,0.912
30.1200,0.836
30.1600,0.784
30.2000,0.748
30.2400,0.739
30.2800,0.705
30.3200,0.718
30.3600,0.699
30.4000,0.703
30.4400,0.661
30.4800,0.653
30.5200,0.674
30.5600,0.698
30.6000,0.665
30.6400,0.690
30.6800,0.663
30.7200,0.666
30.7600,0.678
30.8000,0.686
30.8400,0.623
30.8800,0.641
30.9200,0.659
30.9600,0.683
31.0000,0.650
31.0400,0.654
31.0800,0.671
31.1200,0.618
31.1600,0.619
31.2000,0.604
31.2400,0.633
31.2800,0.617
31.3200,0.627
31.3600,0.591
31.4000,0.631
31.4400,0.641
31.4800,0.625
31.5200,0.633
31.5600,0.610
31.6000,0.611
31.6400,0.596
31.6800,0.651
31.7200,0.620
31.7600,0.644
31.8000,0.612
31.8400,0.615
31.8800,0.639
31.9200,0.642
31.9600,0.640
32.0000,0.634
32.0400,0.599
32.0800,0.617
32.1200,0.635
32.1600,0.619
32.2000,0.627
32.2400,0.624
32.2800,0.597
32.3200,0.589
32.3600,0.590
32.4000,0.615
32.4400,0.617
32.4800,0.608
32.5200,0.627
32.5600,0.622
32.6000,0.588
32.6400,0.645
32.6800,0.591
32.7200,0.620
32.7600,0.631
32.8000,0.599
32.8400,0.596
32.8800,0.616
32.9200,0.583
32.9600,0.628
33.0000,0.619
33.0400,0.592
33.0800,0.614
33.1200,0.553
33.1600,0.592
33.2000,0.598
33.2400,0.616
33.2800,0.571
33.3200,0.566
33.3600,0.594
33.4000,0.589
33.4400,0.570
33.4800,0.578
33.5200,0.556
33.5600,0.593
33.6000,0.581
33.6400,0.558
33.6800,0.578
33.7200,0.588
33.7600,0.564
33.8000,0.590
33.8400,0.569
33.8800,0.591
33.9200,0.580
33.9600,0.588
34.0000,0.584
34.0400,0.611
34.0800,0.550
34.1200,0.584
34.1600,0.588
34.2000,0.570
34.2400,0.593
34.2800,0.564
34.3200,0.525
34.3600,0.577
34.4000,0.612
34.4400,0.538
34.4800,0.534
34.5200,0.581
34.5600,0.578
34.6000,0.573
34.6400,0.572
34.6800,0.515
34.7200,0.547
34.7600,0.567
34.8000,0.568
34.8400,0.549
34.8800,0.549
34.9200,0.548
34.9600,0.532
35.0000,0.536
35.0400,0.559
35.0800,0.483
35.1200,0.553
35.1600,0.540
35.2000,0.564
35.2400,0.546
35.2800,0.525
35.3200,0.531
35.3600,0.535
35.4000,0.541
35.4400,0.523
35.4800,0.522
35.5200,0.523
35.5600,0.537
35.6000,0.530
35.6400,0.543
35.6800,0.522
35.7200,0.525
35.7600,0.564
35.8000,0.528
35.8400,0.512
35.8800,0.539
35.9200,0.538
35.9600,0.537
36.0000,0.517
36.0400,0.522
36.0800,0.520
36.1200,0.520
36.1600,0.524
36.2000,0.501
36.2400,0.553
36.2800,0.525
36.3200,0.515
36.3600,0.498
36.4000,0.519
36.4400,0.516
36.4800,0.498
36.5200,0.538
36.5600,0.559
36.6000,0.510
36.6400,0.511
36.6800,0.510
36.7200,0.502
36.7600,0.548
36.8000,0.510
36.8400,0.545
36.8800,0.525
36.9200,0.521
36.9600,0.503
37.0000,0.505
37.0400,0.514
37.0800,0.509
37.1200,0.498
37.1600,0.523
37.2000,0.496
37.2400,0.481
37.2800,0.508
37.3200,0.510
37.3600,0.527
37.4000,0.520
37.4400,0.502
37.4800,0.498
37.5200,0.475
37.5600,0.482
37.6000,0.545
37.6400,0.481
37.6800,0.471
37.7200,0.477
37.7600,0.492
37.8000,0.501
37.8400,0.506
37.8800,0.524
37.9200,0.519
37.9600,0.497
38.0000,0.465
38.0400,0.498
38.0800,0.482
38.1200,0.475
38.1600,0.507
38.2000,0.486
38.2400,0.495
38.2800,0.498
38.3200,0.489
38.3600,0.504
38.4000,0.510
38.4400,0.528
38.4800,0.505
38.5200,0.509
38.5600,0.495
38.6000,0.501
38.6400,0.494
38.6800,0.502
38.7200,0.490
38.7600,0.513
38.8000,0.496
38.8400,0.494
38.8800,0.533
38.9200,0.521
38.9600,0.519
39.0000,0.489
39.0400,0.517
39.0800,0.500
39.1200,0.508
39.1600,0.545
39.2000,0.542
39.2400,0.485
39.2800,0.538
39.3200,0.516
39.3600,0.519
39.4000,0.526
39.4400,0.527
39.4800,0.547
39.5200,0.530
39.5600,0.555
39.6000,0.567
39.6400,0.592
39.6800,0.586
39.7200,0.589
39.7600,0.623
39.8000,0.588
39.8400,0.633
39.8800,0.625
39.9200,0.623
39.9600,0.634
40.0000,0.675
40.0400,0.680
40.0800,0.689
40.1200,0.758
40.1600,0.772
40.2000,0.810
40.2400,0.884
40.2800,0.946
40.3200,1.009
40.3600,1.127
40.4000,1.260
40.4400,1.443
40.4800,1.584
40.5200,1.819
40.5600,2.008
40.6000,2.305
40.6400,2.627
40.6800,2.872
40.7200,3.195
40.7600,3.628
40.8000,4.114
40.8400,4.572
40.8800,5.048
40.9200,5.619
40.9600,6.033
41.0000,6.547
41.0400,6.699
41.0800,6.589
41.1200,6.182
41.1600,5.540
41.2000,4.785
41.2400,4.076
41.2800,3.363
41.3200,2.744
41.3600,2.258
41.4000,1.904
41.4400,1.683
41.4800,1.448
41.5200,1.359
41.5600,1.144
41.6000,1.085
41.6400,0.976
41.6800,0.942
41.7200,0.866
41.7600,0.854
41.8000,0.765
41.8400,0.740
41.8800,0.699
41.9200,0.695
41.9600,0.722
42.0000,0.642
42.0400,0.609
42.0800,0.659
42.1200,0.599
42.1600,0.629
42.2000,0.620
42.2400,0.601
42.2800,0.588
42.3200,0.583
42.3600,0.597
42.4000,0.620
42.4400,0.600
42.4800,0.593
42.5200,0.607
42.5600,0.615
42.6000,0.649
42.6400,0.694
42.6800,0.774
42.7200,0.934
42.7600,1.111
42.8000,1.533
42.8400,2.125
42.8800,2.708
42.9200,3.055
42.9600,3.178
43.0000,2.941
43.0400,2.456
43.0800,2.039
43.1200,1.540
43.1600,1.128
43.2000,0.874
43.2400,0.757
43.2800,0.655
43.3200,0.606
43.3600,0.580
43.4000,0.535
43.4400,0.517
43.4800,0.470
43.5200,0.484
43.5600,0.452
43.6000,0.486
43.6400,0.477
43.6800,0.448
43.7200,0.467
43.7600,0.446
43.8000,0.465
43.8400,0.451
43.8800,0.441
43.9200,0.418
43.9600,0.425
44.0000,0.407
44.0400,0.401
44.0800,0.445
44.1200,0.406
44.1600,0.421
44.2000,0.400
44.2400,0.410
44.2800,0.407
44.3200,0.403
44.3600,0.396
44.4000,0.445
44.4400,0.396
44.4800,0.406
44.5200,0.406
44.5600,0.422
44.6000,0.376
44.6400,0.379
44.6800,0.379
44.7200,0.400
44.7600,0.376
44.8000,0.410
44.8400,0.396
44.8800,0.437
44.9200,0.407
44.9600,0.406
45.0000,0.409
45.0400,0.396
45.0800,0.392
45.1200,0.382
45.1600,0.421
45.2000,0.406
45.2400,0.386
45.2800,0.419
45.3200,0.384
45.3600,0.385
45.4000,0.382
45.4400,0.372
45.4800,0.377
45.5200,0.397
45.5600,0.413
45.6000,0.381
45.6400,0.392
45.6800,0.411
45.7200,0.403
45.7600,0.406
45.8000,0.398
45.8400,0.419
45.8800,0.407
45.9200,0.420
45.9600,0.405
46.0000,0.376
46.0400,0.403
46.0800,0.401
46.1200,0.433
46.1600,0.429
46.2000,0.409
46.2400,0.429
46.2800,0.416
46.3200,0.422
46.3600,0.438
46.4000,0.462
46.4400,0.461
46.4800,0.455
46.5200,0.492
46.5600,0.479
46.6000,0.496
46.6400,0.519
46.6800,0.525
46.7200,0.527
46.7600,0.539
46.8000,0.561
46.8400,0.600
46.8800,0.651
46.9200,0.663
46.9600,0.712
47.0000,0.734
47.0400,0.750
47.0800,0.840
47.1200,0.866
47.1600,0.928
47.2000,1.036
47.2400,1.076
47.2800,1.161
47.3200,1.333
47.3600,1.282
47.4000,1.458
47.4400,1.624
47.4800,1.689
47.5200,1.782
47.5600,1.814
47.6000,1.957
47.6400,2.054
47.6800,2.113
47.7200,2.138
47.7600,2.195
47.8000,2.079
47.8400,1.994
47.8800,1.882
47.9200,1.794
47.9600,1.569
48.0000,1.453
48.0400,1.292
48.0800,1.173
48.1200,1.009
48.1600,0.911
48.2000,0.832
48.2400,0.787
48.2800,0.702
48.3200,0.672
48.3600,0.650
48.4000,0.579
48.4400,0.555
48.4800,0.513
48.5200,0.493
48.5600,0.478
48.6000,0.454
48.6400,0.424
48.6800,0.436
48.7200,0.437
48.7600,0.396
48.8000,0.411
48.8400,0.417
48.8800,0.373
48.9200,0.389
48.9600,0.370
49.0000,0.376
49.0400,0.330
49.0800,0.334
49.1200,0.334
49.1600,0.349
49.2000,0.353
49.2400,0.341
49.2800,0.339
49.3200,0.323
49.3600,0.340
49.4000,0.307
49.4400,0.313
49.4800,0.334
49.5200,0.328
49.5600,0.304
49.6000,0.321
49.6400,0.309
49.6800,0.347
49.7200,0.314
49.7600,0.315
49.8000,0.311
49.8400,0.288
49.8800,0.306
49.9200,0.314
49.9600,0.314
50.0000,0.296
50.0400,0.284
50.0800,0.292
50.1200,0.319
50.1600,0.289
50.2000,0.302
50.2400,0.310
50.2800,0.296
50.3200,0.294
50.3600,0.265
50.4000,0.277
50.4400,0.295
50.4800,0.275
50.5200,0.277
50.5600,0.266
50.6000,0.277
50.6400,0.293
50.6800,0.292
50.7200,0.269
50.7600,0.289
50.8000,0.266
50.8400,0.277
50.8800,0.289
50.9200,0.295
50.9600,0.273
51.0000,0.274
51.0400,0.301
51.0800,0.300
51.1200,0.296
51.1600,0.273
51.2000,0.260
51.2400,0.303
51.2800,0.271
51.3200,0.264
51.3600,0.306
51.4000,0.288
51.4400,0.265
51.4800,0.278
51.5200,0.278
51.5600,0.269
51.6000,0.258
51.6400,0.261
51.6800,0.285
51.7200,0.270
51.7600,0.264
51.8000,0.297
51.8400,0.266
51.8800,0.279
51.9200,0.247
51.9600,0.270
52.0000,0.264
52.0400,0.268
52.0800,0.273
52.1200,0.271
52.1600,0.264
52.2000,0.253
52.2400,0.239
52.2800,0.240
52.3200,0.249
52.3600,0.269
52.4000,0.265
52.4400,0.262
52.4800,0.268
52.5200,0.251
52.5600,0.255
52.6000,0.245
52.6400,0.251
52.6800,0.261
52.7200,0.265
52.7600,0.255
52.8000,0.228
52.8400,0.243
52.8800,0.260
52.9200,0.266
52.9600,0.224
53.0000,0.240
53.0400,0.247
53.0800,0.279
53.1200,0.283
53.1600,0.292
53.2000,0.327
53.2400,0.312
53.2800,0.317
53.3200,0.307
53.3600,0.313
53.4000,0.321
53.4400,0.279
53.4800,0.281
53.5200,0.270
53.5600,0.259
53.6000,0.263
53.6400,0.269
53.6800,0.258
53.7200,0.265
53.7600,0.237
53.8000,0.234
53.8400,0.252
53.8800,0.261
53.9200,0.252
53.9600,0.238
54.0000,0.231
54.0400,0.230
54.0800,0.245
54.1200,0.246
54.1600,0.214
54.2000,0.244
54.2400,0.228
54.2800,0.246
54.3200,0.254
54.3600,0.238
54.4000,0.244
54.4400,0.224
54.4800,0.238
54.5200,0.233
54.5600,0.254
54.6000,0.223
54.6400,0.259
54.6800,0.237
54.7200,0.237
54.7600,0.235
54.8000,0.221
54.8400,0.232
54.8800,0.218
54.9200,0.234
54.9600,0.237
55.0000,0.228
55.0400,0.226
55.0800,0.229
55.1200,0.221
55.1600,0.245
55.2000,0.234
55.2400,0.229
55.2800,0.228
55.3200,0.238
55.3600,0.245
55.4000,0.246
55.4400,0.215
55.4800,0.230
55.5200,0.221
55.5600,0.225
55.6000,0.240
55.6400,0.227
55.6800,0.243
55.7200,0.216
55.7600,0.274
55.8000,0.238
55.8400,0.226
55.8800,0.211
55.9200,0.216
55.9600,0.233
56.0000,0.227
56.0400,0.223
56.0800,0.226
56.1200,0.224
56.1600,0.247
56.2000,0.223
56.2400,0.230
56.2800,0.223
56.3200,0.239
56.3600,0.206
56.4000,0.221
56.4400,0.236
56.4800,0.238
56.5200,0.217
56.5600,0.250
56.6000,0.225
56.6400,0.246
56.6800,0.241
56.7200,0.224
56.7600,0.236
56.8000,0.230
56.8400,0.210
56.8800,0.219
56.9200,0.227
56.9600,0.237
57.0000,0.233
57.0400,0.209
57.0800,0.217
57.1200,0.234
57.1600,0.212
57.2000,0.226
57.2400,0.225
57.2800,0.236
57.3200,0.214
57.3600,0.208
57.4000,0.226
57.4400,0.245
57.4800,0.213
57.5200,0.233
57.5600,0.216
57.6000,0.211
57.6400,0.198
57.6800,0.222
57.7200,0.208
57.7600,0.229
57.8000,0.227
57.8400,0.214
57.8800,0.198
57.9200,0.228
57.9600,0.217
58.0000,0.238
58.0400,0.217
58.0800,0.218
58.1200,0.222
58.1600,0.219
58.2000,0.225
58.2400,0.206
58.2800,0.215
58.3200,0.217
58.3600,0.219
58.4000,0.215
58.4400,0.231
58.4800,0.229
58.5200,0.209
58.5600,0.231
58.6000,0.210
58.6400,0.217
58.6800,0.218
58.7200,0.241
58.7600,0.234
58.8000,0.219
58.8400,0.210
58.8800,0.235
58.9200,0.219
58.9600,0.219
59.0000,0.205
59.0400,0.243
59.0800,0.217
59.1200,0.196
59.1600,0.209
59.2000,0.201
59.2400,0.193
59.2800,0.213
59.3200,0.200
59.3600,0.199
59.4000,0.220
59.4400,0.213
59.4800,0.230
59.5200,0.215
59.5600,0.214
59.6000,0.206
59.6400,0.214
59.6800,0.217
59.7200,0.213
59.7600,0.235
59.8000,0.212
59.8400,0.224
59.8800,0.233
59.9200,0.226
59.9600,0.219
60.0000,0.204
60.0400,0.196
60.0800,0.201
60.1200,0.196
60.1600,0.214
60.2000,0.221
60.2400,0.212
60.2800,0.214
60.3200,0.202
60.3600,0.214
60.4000,0.213
60.4400,0.207
60.4800,0.205
60.5200,0.198
60.5600,0.218
60.6000,0.218
60.6400,0.213
60.6800,0.211
60.7200,0.219
60.7600,0.200
60.8000,0.228
60.8400,0.218
60.8800,0.193
60.9200,0.208
60.9600,0.196
61.0000,0.225
61.0400,0.214
61.0800,0.207
61.1200,0.230
61.1600,0.229
61.2000,0.224
61.2400,0.201
61.2800,0.225
61.3200,0.231
61.3600,0.222
61.4000,0.217
61.4400,0.211
61.4800,0.223
61.5200,0.226
61.5600,0.222
61.6000,0.207
61.6400,0.226
61.6800,0.229
61.7200,0.239
61.7600,0.208
61.8000,0.227
61.8400,0.239
61.8800,0.236
61.9200,0.212
61.9600,0.229
62.0000,0.235
62.0400,0.259
62.0800,0.268
62.1200,0.284
62.1600,0.311
62.2000,0.335
62.2400,0.383
62.2800,0.406
62.3200,0.412
62.3600,0.409
62.4000,0.405
