theta,intensity
5.0000,4.965
5.0400,4.854
5.0800,4.926
5.1200,4.943
5.1600,4.925
5.2000,4.919
5.2400,4.858
5.2800,4.750
5.3200,4.843
5.3600,4.750
5.4000,4.799
5.4400,4.601
5.4800,4.612
5.5200,4.488
5.5600,4.568
5.6000,4.561
5.6400,4.525
5.6800,4.311
5.7200,4.406
5.7600,4.449
5.8000,4.551
5.8400,4.278
5.8800,4.408
5.9200,4.336
5.9600,4.243
6.0000,4.387
6.0400,4.272
6.0800,4.198
6.1200,4.224
6.1600,4.150
6.2000,4.253
6.2400,4.248
6.2800,4.218
6.3200,4.201
6.3600,4.114
6.4000,4.215
6.4400,4.093
6.4800,4.211
6.5200,4.175
6.5600,4.218
6.6000,4.169
6.6400,4.148
6.6800,4.160
6.7200,4.143
6.7600,4.172
6.8000,4.217
6.8400,4.146
6.8800,3.964
6.9200,4.122
6.9600,4.133
7.0000,4.008
7.0400,4.229
7.0800,4.091
7.1200,4.148
7.1600,4.138
7.2000,4.084
7.2400,4.125
7.2800,4.006
7.3200,3.958
7.3600,3.951
7.4000,4.089
7.4400,4.005
7.4800,4.107
7.5200,4.146
7.5600,4.122
7.6000,4.059
7.6400,3.977
7.6800,4.079
7.7200,3.989
7.7600,4.080
7.8000,4.019
7.8400,3.947
7.8800,3.952
7.9200,3.919
7.9600,3.906
8.0000,4.023
8.0400,3.970
8.0800,3.989
8.1200,3.818
8.1600,3.895
8.2000,3.930
8.2400,3.887
8.2800,4.102
8.3200,4.042
8.3600,3.886
8.4000,3.916
8.4400,3.979
8.4800,3.912
8.5200,3.807
8.5600,3.881
8.6000,3.836
8.6400,3.902
8.6800,3.962
8.7200,3.933
8.7600,3.807
8.8000,3.880
8.8400,3.848
8.8800,3.907
8.9200,3.923
8.9600,3.880
9.0000,3.879
9.0400,3.761
9.0800,3.852
9.1200,3.869
9.1600,3.890
9.2000,3.793
9.2400,3.888
9.2800,3.815
9.3200,3.835
9.3600,3.796
9.4000,3.908
9.4400,3.764
9.4800,3.722
9.5200,3.805
9.5600,3.770
9.6000,3.819
9.6400,3.897
9.6800,3.794
9.7200,3.788
9.7600,3.792
9.8000,3.763
9.8400,3.747
9.8800,3.738
9.9200,3.826
9.9600,3.860
10.0000,3.711
10.0400,3.789
10.0800,3.729
10.1200,3.662
10.1600,3.758
10.2000,3.804
10.2400,3.770
10.2800,3.749
10.3200,3.687
10.3600,3.780
10.4000,3.516
10.4400,3.730
10.4800,3.735
10.5200,3.683
10.5600,3.725
10.6000,3.814
10.6400,3.660
10.6800,3.753
10.7200,3.657
10.7600,3.508
10.8000,3.655
10.8400,3.659
10.8800,3.647
10.9200,3.767
10.9600,3.681
11.0000,3.680
11.0400,3.642
11.0800,3.653
11.1200,3.643
11.1600,3.668
11.2000,3.786
11.2400,3.693
11.2800,3.660
11.3200,3.565
11.3600,3.557
11.4000,3.583
11.4400,3.633
11.4800,3.582
11.5200,3.554
11.5600,3.654
11.6000,3.531
11.6400,3.630
11.6800,3.660
11.7200,3.570
11.7600,3.526
11.8000,3.485
11.8400,3.489
11.8800,3.500
11.9200,3.474
11.9600,3.501
12.0000,3.577
12.0400,3.515
12.0800,3.549
12.1200,3.465
12.1600,3.510
12.2000,3.562
12.2400,3.582
12.2800,3.446
12.3200,3.499
12.3600,3.456
12.4000,3.470
12.4400,3.635
12.4800,3.591
12.5200,3.475
12.5600,3.576
12.6000,3.521
12.6400,3.451
12.6800,3.562
12.7200,3.553
12.7600,3.483
12.8000,3.466
12.8400,3.474
12.8800,3.421
12.9200,3.530
12.9600,3.419
13.0000,3.469
13.0400,3.543
13.0800,3.533
13.1200,3.486
13.1600,3.443
13.2000,3.357
13.2400,3.374
13.2800,3.488
13.3200,3.366
13.3600,3.472
13.4000,3.349
13.4400,3.332
13.4800,3.501
13.5200,3.324
13.5600,3.387
13.6000,3.282
13.6400,3.437
13.6800,3.267
13.7200,3.404
13.7600,3.355
13.8000,3.297
13.8400,3.440
13.8800,3.371
13.9200,3.362
13.9600,3.523
14.0000,3.365
14.0400,3.406
14.0800,3.347
14.1200,3.390
14.1600,3.359
14.2000,3.362
14.2400,3.331
14.2800,3.264
14.3200,3.307
14.3600,3.353
14.4000,3.357
14.4400,3.261
14.4800,3.357
14.5200,3.210
14.5600,3.229
14.6000,3.378
14.6400,3.319
14.6800,3.328
14.7200,3.278
14.7600,3.281
14.8000,3.224
14.8400,3.296
14.8800,3.284
14.9200,3.280
14.9600,3.252
15.0000,3.220
15.0400,3.279
15.0800,3.293
15.1200,3.190
15.1600,3.286
15.2000,3.329
15.2400,3.346
15.2800,3.192
15.3200,3.194
15.3600,3.313
15.4000,3.252
15.4400,3.235
15.4800,3.209
15.5200,3.307
15.5600,3.208
15.6000,3.159
15.6400,3.361
15.6800,3.161
15.7200,3.328
15.7600,3.236
15.8000,3.269
15.8400,3.121
15.8800,3.184
15.9200,3.161
15.9600,3.072
16.0000,3.180
16.0400,3.169
16.0800,3.238
16.1200,3.192
16.1600,3.116
16.2000,3.054
16.2400,3.144
16.2800,3.244
16.3200,3.196
16.3600,3.231
16.4000,3.104
16.4400,3.117
16.4800,3.163
16.5200,3.175
16.5600,3.202
16.6000,3.054
16.6400,3.141
16.6800,3.171
16.7200,3.111
16.7600,3.053
16.8000,3.017
16.8400,3.123
16.8800,3.194
16.9200,3.208
16.9600,3.058
17.0000,3.185
17.0400,3.105
17.0800,3.113
17.1200,3.005
17.1600,3.062
17.2000,3.185
17.2400,3.038
17.2800,3.025
17.3200,3.065
17.3600,3.058
17.4000,3.084
17.4400,3.140
17.4800,3.109
17.5200,3.086
17.5600,2.950
17.6000,3.088
17.6400,2.900
17.6800,3.075
17.7200,3.016
17.7600,2.975
17.8000,2.923
17.8400,3.062
17.8800,3.019
17.9200,3.003
17.9600,3.121
18.0000,3.064
18.0400,3.071
18.0800,2.990
18.1200,2.934
18.1600,2.987
18.2000,3.103
18.2400,2.988
18.2800,3.028
18.3200,2.944
18.3600,2.955
18.4000,2.985
18.4400,2.998
18.4800,2.915
18.5200,2.932
18.5600,2.927
18.6000,2.863
18.6400,2.881
18.6800,2.901
18.7200,2.929
18.7600,2.951
18.8000,2.807
18.8400,2.891
18.8800,2.898
18.9200,2.904
18.9600,2.919
19.0000,2.922
19.0400,2.923
19.0800,2.872
19.1200,2.988
19.1600,2.907
19.2000,2.930
19.2400,2.828
19.2800,2.814
19.3200,2.937
19.3600,2.915
19.4000,2.874
19.4400,2.863
19.4800,2.966
19.5200,2.911
19.5600,2.822
19.6000,2.894
19.6400,2.825
19.6800,2.861
19.7200,2.786
19.7600,2.874
19.8000,2.750
19.8400,2.845
19.8800,2.881
19.9200,2.823
19.9600,2.817
20.0000,2.939
20.0400,2.805
20.0800,2.793
20.1200,2.857
20.1600,2.877
20.2000,2.885
20.2400,2.820
20.2800,2.708
20.3200,2.793
20.3600,2.848
20.4000,2.781
20.4400,2.795
20.4800,2.822
20.5200,2.848
20.5600,2.737
20.6000,2.794
20.6400,2.671
20.6800,2.750
20.7200,2.865
20.7600,2.839
20.8000,2.853
20.8400,2.699
20.8800,2.749
20.9200,2.708
20.9600,2.747
21.0000,2.718
21.0400,2.665
21.0800,2.679
21.1200,2.681
21.1600,2.815
21.2000,2.784
21.2400,2.653
21.2800,2.709
21.3200,2.676
21.3600,2.665
21.4000,2.636
21.4400,2.723
21.4800,2.770
21.5200,2.738
21.5600,2.662
21.6000,2.710
21.6400,2.621
21.6800,2.766
21.7200,2.667
21.7600,2.653
21.8000,2.658
21.8400,2.653
21.8800,2.676
21.9200,2.704
21.9600,2.567
22.0000,2.769
22.0400,2.649
22.0800,2.645
22.1200,2.653
22.1600,2.654
22.2000,2.693
22.2400,2.581
22.2800,2.624
22.3200,2.636
22.3600,2.632
22.4000,2.585
22.4400,2.535
22.4800,2.497
22.5200,2.647
22.5600,2.686
22.6000,2.599
22.6400,2.569
22.6800,2.548
22.7200,2.579
22.7600,2.520
22.8000,2.597
22.8400,2.586
22.8800,2.482
22.9200,2.670
22.9600,2.511
23.0000,2.561
23.0400,2.393
23.0800,2.522
23.1200,2.587
23.1600,2.564
23.2000,2.552
23.2400,2.589
23.2800,2.467
23.3200,2.590
23.3600,2.480
23.4000,2.557
23.4400,2.604
23.4800,2.497
23.5200,2.565
23.5600,2.506
23.6000,2.465
23.6400,2.423
23.6800,2.577
23.7200,2.547
23.7600,2.529
23.8000,2.464
23.8400,2.420
23.8800,2.473
23.9200,2.456
23.9600,2.416
24.0000,2.430
24.0400,2.418
24.0800,2.366
24.1200,2.418
24.1600,2.480
24.2000,2.419
24.2400,2.450
24.2800,2.522
24.3200,2.458
24.3600,2.361
24.4000,2.475
24.4400,2.420
24.4800,2.388
24.5200,2.419
24.5600,2.452
24.6000,2.462
24.6400,2.451
24.6800,2.417
24.7200,2.371
24.7600,2.399
24.8000,2.316
24.8400,2.457
24.8800,2.468
24.9200,2.455
24.9600,2.454
25.0000,2.418
25.0400,2.262
25.0800,2.325
25.1200,2.430
25.1600,2.386
25.2000,2.240
25.2400,2.415
25.2800,2.275
25.3200,2.303
25.3600,2.323
25.4000,2.350
25.4400,2.342
25.4800,2.355
25.5200,2.415
25.5600,2.352
25.6000,2.451
25.6400,2.288
25.6800,2.289
25.7200,2.273
25.7600,2.264
25.8000,2.242
25.8400,2.277
25.8800,2.313
25.9200,2.363
25.9600,2.212
26.0000,2.246
26.0400,2.316
26.0800,2.345
26.1200,2.293
26.1600,2.269
26.2000,2.261
26.2400,2.228
26.2800,2.302
26.3200,2.215
26.3600,2.238
26.4000,2.271
26.4400,2.271
26.4800,2.226
26.5200,2.190
26.5600,2.218
26.6000,2.169
26.6400,2.207
26.6800,2.229
26.7200,2.281
26.7600,2.188
26.8000,2.128
26.8400,2.129
26.8800,2.175
26.9200,2.192
26.9600,2.229
27.0000,2.288
27.0400,2.087
27.0800,2.152
27.1200,2.192
27.1600,2.171
27.2000,2.150
27.2400,2.090
27.2800,2.153
27.3200,2.174
27.3600,2.169
27.4000,2.143
27.4400,2.081
27.4800,2.167
27.5200,2.141
27.5600,2.081
27.6000,2.167
27.6400,2.170
27.6800,2.143
27.7200,2.213
27.7600,2.082
27.8000,2.154
27.8400,2.073
27.8800,2.104
27.9200,2.128
27.9600,2.144
28.0000,2.102
28.0400,2.085
28.0800,2.109
28.1200,2.105
28.1600,2.027
28.2000,2.113
28.2400,2.072
28.2800,2.121
28.3200,2.081
28.3600,2.117
28.4000,2.170
28.4400,2.153
28.4800,2.096
28.5200,2.173
28.5600,2.148
28.6000,2.130
28.6400,2.082
28.6800,2.027
28.7200,2.097
28.7600,2.147
28.8000,2.042
28.8400,2.069
28.8800,2.067
28.9200,2.018
28.9600,2.103
29.0000,2.076
29.0400,1.931
29.0800,2.043
29.1200,2.027
29.1600,2.020
29.2000,2.072
29.2400,2.037
29.2800,1.991
29.3200,1.928
29.3600,2.039
29.4000,2.007
29.4400,1.910
29.4800,2.049
29.5200,2.015
29.5600,2.053
29.6000,1.952
29.6400,2.038
29.6800,1.987
29.7200,1.904
29.7600,1.925
29.8000,1.981
29.8400,1.976
29.8800,1.937
29.9200,1.910
29.9600,1.997
30.0000,1.948
30.0400,1.911
30.0800,1.897
30.1200,1.917
30.1600,1.922
30.2000,1.935
30.2400,1.826
30.2800,1.902
30.3200,1.873
30.3600,1.884
30.4000,1.895
30.4400,1.871
30.4800,1.895
30.5200,1.844
30.5600,1.895
30.6000,1.895
30.6400,1.844
30.6800,1.936
30.7200,1.826
30.7600,1.862
30.8000,1.874
30.8400,1.810
30.8800,1.806
30.9200,1.849
30.9600,1.899
31.0000,1.812
31.0400,1.783
31.0800,1.781
31.1200,1.909
31.1600,1.882
31.2000,1.807
31.2400,1.820
31.2800,1.927
31.3200,1.762
31.3600,1.806
31.4000,1.821
31.4400,1.952
31.4800,1.796
31.5200,1.862
31.5600,1.872
31.6000,1.878
31.6400,1.800
31.6800,1.780
31.7200,1.737
31.7600,1.821
31.8000,1.747
31.8400,1.815
31.8800,1.801
31.9200,1.715
31.9600,1.715
32.0000,1.802
32.0400,1.807
32.0800,1.806
32.1200,1.802
32.1600,1.839
32.2000,1.700
32.2400,1.764
32.2800,1.780
32.3200,1.814
32.3600,1.873
32.4000,1.822
32.4400,1.757
32.4800,1.782
32.5200,1.797
32.5600,1.754
32.6000,1.733
32.6400,1.723
32.6800,1.761
32.7200,1.706
32.7600,1.698
32.8000,1.710
32.8400,1.694
32.8800,1.724
32.9200,1.678
32.9600,1.676
33.0000,1.728
33.0400,1.680
33.0800,1.748
33.1200,1.695
33.1600,1.679
33.2000,1.805
33.2400,1.754
33.2800,1.736
33.3200,1.678
33.3600,1.747
33.4000,1.721
33.4400,1.743
33.4800,1.644
33.5200,1.704
33.5600,1.686
33.6000,1.663
33.6400,1.625
33.6800,1.653
33.7200,1.637
33.7600,1.692
33.8000,1.705
33.8400,1.665
33.8800,1.676
33.9200,1.719
33.9600,1.700
34.0000,1.646
34.0400,1.823
34.0800,1.693
34.1200,1.708
34.1600,1.612
34.2000,1.610
34.2400,1.656
34.2800,1.618
34.3200,1.693
34.3600,1.653
34.4000,1.692
34.4400,1.625
34.4800,1.612
34.5200,1.705
34.5600,1.574
34.6000,1.611
34.6400,1.606
34.6800,1.657
34.7200,1.572
34.7600,1.562
34.8000,1.582
34.8400,1.585
34.8800,1.622
34.9200,1.522
34.9600,1.561
35.0000,1.620
35.0400,1.580
35.0800,1.614
35.1200,1.532
35.1600,1.568
35.2000,1.537
35.2400,1.575
35.2800,1.699
35.3200,1.616
35.3600,1.591
35.4000,1.608
35.4400,1.565
35.4800,1.529
35.5200,1.638
35.5600,1.587
35.6000,1.623
35.6400,1.593
35.6800,1.618
35.7200,1.542
35.7600,1.693
35.8000,1.596
35.8400,1.578
35.8800,1.616
35.9200,1.561
35.9600,1.616
36.0000,1.707
36.0400,1.683
36.0800,1.638
36.1200,1.664
36.1600,1.622
36.2000,1.644
36.2400,1.655
36.2800,1.632
36.3200,1.625
36.3600,1.620
36.4000,1.640
36.4400,1.663
36.4800,1.717
36.5200,1.607
36.5600,1.651
36.6000,1.620
36.6400,1.618
36.6800,1.681
36.7200,1.559
36.7600,1.630
36.8000,1.725
36.8400,1.779
36.8800,1.657
36.9200,1.685
36.9600,1.715
37.0000,1.767
37.0400,1.728
37.0800,1.735
37.1200,1.841
37.1600,1.738
37.2000,1.837
37.2400,1.735
37.2800,1.850
37.3200,1.845
37.3600,1.922
37.4000,1.925
37.4400,1.970
37.4800,1.936
37.5200,2.138
37.5600,2.148
37.6000,2.202
37.6400,2.272
37.6800,2.352
37.7200,2.464
37.7600,2.762
37.8000,2.937
37.8400,3.171
37.8800,3.470
37.9200,4.081
37.9600,4.784
38.0000,5.918
38.0400,7.638
38.0800,10.589
38.1200,15.916
38.1600,25.883
38.2000,40.081
38.2400,49.399
38.2800,48.238
38.3200,40.839
38.3600,31.936
38.4000,21.731
38.4400,13.967
38.4800,9.649
38.5200,7.066
38.5600,5.531
38.6000,4.680
38.6400,3.891
38.6800,3.505
38.7200,3.157
38.7600,2.991
38.8000,2.685
38.8400,2.507
38.8800,2.385
38.9200,2.284
38.9600,2.177
39.0000,2.025
39.0400,2.099
39.0800,2.075
39.1200,1.987
39.1600,1.870
39.2000,1.814
39.2400,1.774
39.2800,1.798
39.3200,1.738
39.3600,1.764
39.4000,1.691
39.4400,1.616
39.4800,1.591
39.5200,1.584
39.5600,1.619
39.6000,1.640
39.6400,1.601
39.6800,1.582
39.7200,1.521
39.7600,1.504
39.8000,1.554
39.8400,1.468
39.8800,1.556
39.9200,1.482
39.9600,1.511
40.0000,1.450
40.0400,1.447
40.0800,1.461
40.1200,1.458
40.1600,1.474
40.2000,1.341
40.2400,1.398
40.2800,1.448
40.3200,1.388
40.3600,1.471
40.4000,1.388
40.4400,1.403
40.4800,1.362
40.5200,1.370
40.5600,1.352
40.6000,1.484
40.6400,1.403
40.6800,1.436
40.7200,1.367
40.7600,1.379
40.8000,1.363
40.8400,1.397
40.8800,1.344
40.9200,1.325
40.9600,1.360
41.0000,1.353
41.0400,1.419
41.0800,1.305
41.1200,1.306
41.1600,1.326
41.2000,1.342
41.2400,1.388
41.2800,1.392
41.3200,1.288
41.3600,1.355
41.4000,1.283
41.4400,1.264
41.4800,1.334
41.5200,1.356
41.5600,1.233
41.6000,1.291
41.6400,1.327
41.6800,1.298
41.7200,1.330
41.7600,1.313
41.8000,1.297
41.8400,1.280
41.8800,1.337
41.9200,1.250
41.9600,1.331
42.0000,1.249
42.0400,1.309
42.0800,1.303
42.1200,1.223
42.1600,1.306
42.2000,1.268
42.2400,1.294
42.2800,1.250
42.3200,1.262
42.3600,1.337
42.4000,1.275
42.4400,1.306
42.4800,1.276
42.5200,1.283
42.5600,1.324
42.6000,1.275
42.6400,1.330
42.6800,1.281
42.7200,1.235
42.7600,1.300
42.8000,1.283
42.8400,1.305
42.8800,1.334
42.9200,1.260
42.9600,1.289
43.0000,1.294
43.0400,1.299
43.0800,1.270
43.1200,1.358
43.1600,1.348
43.2000,1.323
43.2400,1.316
43.2800,1.339
43.3200,1.375
43.3600,1.387
43.4000,1.419
43.4400,1.449
43.4800,1.397
43.5200,1.464
43.5600,1.508
43.6000,1.452
43.6400,1.460
43.6800,1.643
43.7200,1.654
43.7600,1.678
43.8000,1.686
43.8400,1.667
43.8800,1.785
43.9200,1.857
43.9600,1.961
44.0000,2.083
44.0400,2.242
44.0800,2.384
44.1200,2.739
44.1600,3.127
44.2000,3.516
44.2400,4.025
44.2800,4.841
44.3200,5.992
44.3600,7.657
44.4000,9.456
44.4400,11.270
44.4800,12.652
44.5200,12.825
44.5600,11.875
44.6000,10.718
44.6400,9.015
44.6800,7.040
44.7200,5.710
44.7600,4.497
44.8000,3.725
44.8400,3.178
44.8800,2.775
44.9200,2.516
44.9600,2.171
45.0000,2.002
45.0400,1.884
45.0800,1.758
45.1200,1.702
45.1600,1.557
45.2000,1.560
45.2400,1.451
45.2800,1.426
45.3200,1.382
45.3600,1.318
45.4000,1.351
45.4400,1.280
45.4800,1.250
45.5200,1.224
45.5600,1.209
45.6000,1.235
45.6400,1.175
45.6800,1.148
45.7200,1.212
45.7600,1.158
45.8000,1.093
45.8400,1.165
45.8800,1.124
45.9200,1.119
45.9600,1.041
46.0000,1.110
46.0400,1.075
46.0800,1.156
46.1200,1.109
46.1600,1.086
46.2000,1.034
46.2400,1.055
46.2800,1.055
46.3200,1.121
46.3600,1.074
46.4000,1.037
46.4400,1.021
46.4800,0.963
46.5200,1.029
46.5600,1.029
46.6000,1.019
46.6400,0.990
46.6800,1.012
46.7200,1.035
46.7600,0.959
46.8000,0.993
46.8400,0.957
46.8800,0.987
46.9200,0.989
46.9600,0.983
47.0000,0.979
47.0400,1.021
47.0800,1.008
47.1200,1.010
47.1600,0.959
47.2000,0.996
47.2400,0.974
47.2800,0.977
47.3200,0.940
47.3600,1.000
47.4000,1.036
47.4400,0.961
47.4800,1.016
47.5200,0.934
47.5600,1.002
47.6000,0.928
47.6400,0.907
47.6800,0.992
47.7200,0.935
47.7600,0.953
47.8000,0.948
47.8400,0.981
47.8800,0.933
47.9200,0.922
47.9600,0.941
48.0000,0.922
48.0400,0.896
48.0800,0.883
48.1200,0.920
48.1600,0.892
48.2000,0.909
48.2400,0.902
48.2800,0.934
48.3200,0.947
48.3600,0.922
48.4000,0.943
48.4400,0.905
48.4800,0.869
48.5200,0.833
48.5600,0.898
48.6000,0.933
48.6400,0.900
48.6800,0.911
48.7200,0.876
48.7600,0.931
48.8000,0.840
48.8400,0.863
48.8800,0.902
48.9200,0.882
48.9600,0.849
49.0000,0.920
49.0400,0.901
49.0800,0.891
49.1200,0.845
49.1600,0.889
49.2000,0.859
49.2400,0.923
49.2800,0.886
49.3200,0.837
49.3600,0.837
49.4000,0.914
49.4400,0.840
49.4800,0.851
49.5200,0.853
49.5600,0.867
49.6000,0.784
49.6400,0.825
49.6800,0.834
49.7200,0.848
49.7600,0.841
49.8000,0.909
49.8400,0.899
49.8800,0.806
49.9200,0.838
49.9600,0.827
50.0000,0.857
50.0400,0.809
50.0800,0.836
50.1200,0.805
50.1600,0.884
50.2000,0.822
50.2400,0.823
50.2800,0.865
50.3200,0.833
50.3600,0.852
50.4000,0.812
50.4400,0.863
50.4800,0.802
50.5200,0.835
50.5600,0.812
50.6000,0.830
50.6400,0.795
50.6800,0.809
50.7200,0.803
50.7600,0.769
50.8000,0.807
50.8400,0.828
50.8800,0.851
50.9200,0.806
50.9600,0.784
51.0000,0.792
51.0400,0.821
51.0800,0.818
51.1200,0.846
51.1600,0.793
51.2000,0.816
51.2400,0.762
51.2800,0.825
51.3200,0.816
51.3600,0.817
51.4000,0.792
51.4400,0.772
51.4800,0.796
51.5200,0.800
51.5600,0.830
51.6000,0.809
51.6400,0.803
51.6800,0.777
51.7200,0.773
51.7600,0.892
51.8000,0.817
51.8400,0.775
51.8800,0.795
51.9200,0.756
51.9600,0.802
52.0000,0.765
52.0400,0.752
52.0800,0.756
52.1200,0.817
52.1600,0.772
52.2000,0.748
52.2400,0.734
52.2800,0.825
52.3200,0.705
52.3600,0.741
52.4000,0.782
52.4400,0.776
52.4800,0.752
52.5200,0.754
52.5600,0.756
52.6000,0.782
52.6400,0.719
52.6800,0.739
52.7200,0.734
52.7600,0.763
52.8000,0.699
52.8400,0.770
52.8800,0.798
52.9200,0.765
52.9600,0.767
53.0000,0.770
53.0400,0.803
53.0800,0.728
53.1200,0.772
53.1600,0.788
53.2000,0.752
53.2400,0.763
53.2800,0.731
53.3200,0.704
53.3600,0.772
53.4000,0.726
53.4400,0.732
53.4800,0.720
53.5200,0.711
53.5600,0.736
53.6000,0.745
53.6400,0.780
53.6800,0.716
53.7200,0.745
53.7600,0.736
53.8000,0.767
53.8400,0.700
53.8800,0.734
53.9200,0.760
53.9600,0.747
54.0000,0.775
54.0400,0.738
54.0800,0.705
54.1200,0.725
54.1600,0.729
54.2000,0.687
54.2400,0.709
54.2800,0.789
54.3200,0.706
54.3600,0.746
54.4000,0.725
54.4400,0.726
54.4800,0.730
54.5200,0.730
54.5600,0.657
54.6000,0.680
54.6400,0.746
54.6800,0.694
54.7200,0.717
54.7600,0.693
54.8000,0.708
54.8400,0.733
54.8800,0.755
54.9200,0.743
54.9600,0.749
55.0000,0.659
55.0400,0.684
55.0800,0.706
55.1200,0.703
55.1600,0.690
55.2000,0.725
55.2400,0.695
55.2800,0.717
55.3200,0.672
55.3600,0.685
55.4000,0.714
55.4400,0.730
55.4800,0.671
55.5200,0.663
55.5600,0.715
55.6000,0.687
55.6400,0.708
55.6800,0.759
55.7200,0.641
55.7600,0.675
55.8000,0.724
55.8400,0.696
55.8800,0.692
55.9200,0.687
55.9600,0.670
56.0000,0.698
56.0400,0.689
56.0800,0.631
56.1200,0.645
56.1600,0.673
56.2000,0.694
56.2400,0.702
56.2800,0.702
56.3200,0.723
56.3600,0.621
56.4000,0.712
56.4400,0.715
56.4800,0.639
56.5200,0.683
56.5600,0.712
56.6000,0.667
56.6400,0.692
56.6800,0.658
56.7200,0.692
56.7600,0.693
56.8000,0.682
56.8400,0.716
56.8800,0.727
56.9200,0.726
56.9600,0.674
57.0000,0.613
57.0400,0.717
57.0800,0.672
57.1200,0.687
57.1600,0.658
57.2000,0.653
57.2400,0.655
57.2800,0.666
57.3200,0.662
57.3600,0.624
57.4000,0.705
57.4400,0.661
57.4800,0.658
57.5200,0.653
57.5600,0.633
57.6000,0.656
57.6400,0.663
57.6800,0.615
57.7200,0.648
57.7600,0.642
57.8000,0.664
57.8400,0.629
57.8800,0.658
57.9200,0.633
57.9600,0.648
58.0000,0.661
58.0400,0.624
58.0800,0.635
58.1200,0.630
58.1600,0.671
58.2000,0.608
58.2400,0.639
58.2800,0.671
58.3200,0.646
58.3600,0.594
58.4000,0.631
58.4400,0.640
58.4800,0.630
58.5200,0.642
58.5600,0.672
58.6000,0.637
58.6400,0.630
58.6800,0.669
58.7200,0.625
58.7600,0.628
58.8000,0.649
58.8400,0.609
58.8800,0.637
58.9200,0.644
58.9600,0.609
59.0000,0.602
59.0400,0.632
59.0800,0.676
59.1200,0.615
59.1600,0.641
59.2000,0.612
59.2400,0.587
59.2800,0.585
59.3200,0.613
59.3600,0.606
59.4000,0.650
59.4400,0.680
59.4800,0.602
59.5200,0.625
59.5600,0.608
59.6000,0.621
59.6400,0.664
59.6800,0.561
59.7200,0.595
59.7600,0.599
59.8000,0.594
59.8400,0.602
59.8800,0.604
59.9200,0.606
59.9600,0.642
60.0000,0.595
60.0400,0.605
60.0800,0.618
60.1200,0.597
60.1600,0.594
60.2000,0.586
60.2400,0.619
60.2800,0.573
60.3200,0.601
60.3600,0.596
60.4000,0.641
60.4400,0.584
60.4800,0.569
60.5200,0.584
60.5600,0.547
60.6000,0.576
60.6400,0.601
60.6800,0.589
60.7200,0.593
60.7600,0.612
60.8000,0.654
60.8400,0.619
60.8800,0.614
60.9200,0.575
60.9600,0.613
61.0000,0.581
61.0400,0.547
61.0800,0.607
61.1200,0.597
61.1600,0.613
61.2000,0.573
61.2400,0.583
61.2800,0.577
61.3200,0.577
61.3600,0.615
61.4000,0.575
61.4400,0.547
61.4800,0.585
61.5200,0.607
61.5600,0.579
61.6000,0.603
61.6400,0.641
61.6800,0.680
61.7200,0.664
61.7600,0.634
61.8000,0.601
61.8400,0.604
61.8800,0.607
61.9200,0.556
61.9600,0.601
62.0000,0.580
62.0400,0.586
62.0800,0.590
62.1200,0.565
62.1600,0.536
62.2000,0.576
62.2400,0.536
62.2800,0.563
62.3200,0.556
62.3600,0.563
