theta,intensity
5.0000,4.672
5.0400,4.562
5.0800,4.709
5.1200,4.587
5.1600,4.519
5.2000,4.652
5.2400,4.493
5.2800,4.529
5.3200,4.507
5.3600,4.407
5.4000,4.517
5.4400,4.473
5.4800,4.337
5.5200,4.420
5.5600,4.431
5.6000,4.339
5.6400,4.246
5.6800,4.263
5.7200,4.352
5.7600,4.391
5.8000,4.243
5.8400,4.201
5.8800,4.114
5.9200,4.313
5.9600,4.140
6.0000,4.117
6.0400,4.173
6.0800,4.221
6.1200,4.182
6.1600,4.102
6.2000,4.235
6.2400,4.178
6.2800,4.150
6.3200,4.204
6.3600,4.048
6.4000,4.136
6.4400,4.123
6.4800,4.011
6.5200,4.156
6.5600,4.058
6.6000,3.966
6.6400,4.023
6.6800,3.995
6.7200,3.969
6.7600,4.034
6.8000,4.051
6.8400,3.911
6.8800,3.935
6.9200,4.068
6.9600,3.981
7.0000,4.086
7.0400,3.965
7.0800,3.988
7.1200,3.949
7.1600,3.989
7.2000,3.939
7.2400,4.061
7.2800,3.985
7.3200,3.930
7.3600,3.920
7.4000,3.907
7.4400,3.764
7.4800,4.025
7.5200,3.954
7.5600,3.922
7.6000,3.872
7.6400,3.954
7.6800,3.882
7.7200,3.811
7.7600,3.887
7.8000,3.827
7.8400,3.929
7.8800,3.780
7.9200,3.749
7.9600,3.866
8.0000,3.786
8.0400,3.870
8.0800,3.899
8.1200,3.855
8.1600,3.829
8.2000,3.888
8.2400,3.817
8.2800,3.896
8.3200,3.712
8.3600,3.777
8.4000,3.760
8.4400,3.819
8.4800,3.744
8.5200,3.803
8.5600,3.738
8.6000,3.761
8.6400,3.738
8.6800,3.778
8.7200,3.714
8.7600,3.749
8.8000,3.712
8.8400,3.715
8.8800,3.777
8.9200,3.713
8.9600,3.897
9.0000,3.728
9.0400,3.764
9.0800,3.782
9.1200,3.676
9.1600,3.704
9.2000,3.728
9.2400,3.717
9.2800,3.677
9.3200,3.716
9.3600,3.744
9.4000,3.694
9.4400,3.654
9.4800,3.745
9.5200,3.726
9.5600,3.697
9.6000,3.718
9.6400,3.616
9.6800,3.693
9.7200,3.731
9.7600,3.794
9.8000,3.715
9.8400,3.616
9.8800,3.697
9.9200,3.630
9.9600,3.571
10.0000,3.631
10.0400,3.714
10.0800,3.560
10.1200,3.611
10.1600,3.638
10.2000,3.677
10.2400,3.604
10.2800,3.502
10.3200,3.613
10.3600,3.553
10.4000,3.547
10.4400,3.573
10.4800,3.592
10.5200,3.664
10.5600,3.541
10.6000,3.569
10.6400,3.586
10.6800,3.505
10.7200,3.456
10.7600,3.415
10.8000,3.680
10.8400,3.492
10.8800,3.613
10.9200,3.596
10.9600,3.590
11.0000,3.597
11.0400,3.596
11.0800,3.509
11.1200,3.580
11.1600,3.484
11.2000,3.468
11.2400,3.546
11.2800,3.567
11.3200,3.522
11.3600,3.507
11.4000,3.466
11.4400,3.539
11.4800,3.445
11.5200,3.440
11.5600,3.604
11.6000,3.449
11.6400,3.381
11.6800,3.425
11.7200,3.563
11.7600,3.430
11.8000,3.430
11.8400,3.368
11.8800,3.411
11.9200,3.496
11.9600,3.468
12.0000,3.381
12.0400,3.423
12.0800,3.517
12.1200,3.394
12.1600,3.530
12.2000,3.430
12.2400,3.444
12.2800,3.430
12.3200,3.392
12.3600,3.271
12.4000,3.368
12.4400,3.360
12.4800,3.485
12.5200,3.294
12.5600,3.329
12.6000,3.284
12.6400,3.471
12.6800,3.408
12.7200,3.361
12.7600,3.296
12.8000,3.354
12.8400,3.328
12.8800,3.489
12.9200,3.375
12.9600,3.349
13.0000,3.387
13.0400,3.343
13.0800,3.262
13.1200,3.370
13.1600,3.275
13.2000,3.250
13.2400,3.260
13.2800,3.423
13.3200,3.324
13.3600,3.323
13.4000,3.292
13.4400,3.321
13.4800,3.251
13.5200,3.274
13.5600,3.307
13.6000,3.254
13.6400,3.304
13.6800,3.311
13.7200,3.307
13.7600,3.354
13.8000,3.287
13.8400,3.197
13.8800,3.299
13.9200,3.265
13.9600,3.246
14.0000,3.210
14.0400,3.206
14.0800,3.303
14.1200,3.276
14.1600,3.271
14.2000,3.219
14.2400,3.145
14.2800,3.181
14.3200,3.167
14.3600,3.084
14.4000,3.130
14.4400,3.112
14.4800,3.167
14.5200,3.104
14.5600,3.167
14.6000,3.155
14.6400,3.176
14.6800,3.135
14.7200,3.173
14.7600,3.249
14.8000,3.102
14.8400,3.180
14.8800,3.125
14.9200,3.125
14.9600,3.182
15.0000,3.152
15.0400,3.214
15.0800,3.097
15.1200,3.169
15.1600,3.174
15.2000,3.107
15.2400,3.095
15.2800,3.133
15.3200,3.171
15.3600,3.175
15.4000,3.128
15.4400,3.160
15.4800,3.158
15.5200,3.142
15.5600,3.089
15.6000,3.070
15.6400,3.198
15.6800,3.074
15.7200,3.110
15.7600,3.138
15.8000,3.049
15.8400,3.003
15.8800,3.003
15.9200,3.081
15.9600,3.117
16.0000,3.054
16.0400,3.065
16.0800,3.020
16.1200,2.991
16.1600,3.031
16.2000,2.993
16.2400,2.979
16.2800,2.986
16.3200,3.007
16.3600,3.038
16.4000,2.961
16.4400,3.028
16.4800,3.041
16.5200,2.979
16.5600,3.096
16.6000,3.062
16.6400,3.117
16.6800,3.111
16.7200,2.922
16.7600,2.948
16.8000,2.975
16.8400,3.029
16.8800,3.065
16.9200,3.036
16.9600,2.994
17.0000,3.030
17.0400,3.000
17.0800,3.038
17.1200,3.020
17.1600,3.053
17.2000,2.963
17.2400,2.930
17.2800,2.932
17.3200,3.008
17.3600,2.915
17.4000,2.936
17.4400,2.908
17.4800,2.882
17.5200,2.958
17.5600,2.988
17.6000,2.951
17.6400,3.012
17.6800,2.795
17.7200,2.805
17.7600,2.938
17.8000,2.876
17.8400,2.904
17.8800,2.870
17.9200,2.892
17.9600,2.885
18.0000,2.861
18.0400,2.850
18.0800,2.887
18.1200,2.903
18.1600,2.890
18.2000,2.934
18.2400,2.958
18.2800,2.936
18.3200,2.772
18.3600,2.873
18.4000,2.813
18.4400,2.801
18.4800,2.909
18.5200,2.825
18.5600,2.812
18.6000,2.864
18.6400,2.846
18.6800,2.861
18.7200,2.803
18.7600,2.780
18.8000,2.878
18.8400,2.758
18.8800,2.825
18.9200,2.769
18.9600,2.770
19.0000,2.861
19.0400,2.810
19.0800,2.820
19.1200,2.683
19.1600,2.768
19.2000,2.735
19.2400,2.856
19.2800,2.730
19.3200,2.713
19.3600,2.680
19.4000,2.774
19.4400,2.775
19.4800,2.799
19.5200,2.783
19.5600,2.775
19.6000,2.771
19.6400,2.768
19.6800,2.720
19.7200,2.664
19.7600,2.692
19.8000,2.695
19.8400,2.813
19.8800,2.663
19.9200,2.697
19.9600,2.686
20.0000,2.740
20.0400,2.625
20.0800,2.531
20.1200,2.661
20.1600,2.736
20.2000,2.649
20.2400,2.643
20.2800,2.712
20.3200,2.629
20.3600,2.598
20.4000,2.647
20.4400,2.644
20.4800,2.741
20.5200,2.709
20.5600,2.703
20.6000,2.658
20.6400,2.713
20.6800,2.667
20.7200,2.620
20.7600,2.613
20.8000,2.611
20.8400,2.584
20.8800,2.646
20.9200,2.527
20.9600,2.641
21.0000,2.706
21.0400,2.665
21.0800,2.631
21.1200,2.649
21.1600,2.698
21.2000,2.659
21.2400,2.614
21.2800,2.472
21.3200,2.560
21.3600,2.581
21.4000,2.621
21.4400,2.576
21.4800,2.650
21.5200,2.531
21.5600,2.703
21.6000,2.544
21.6400,2.550
21.6800,2.532
21.7200,2.630
21.7600,2.539
21.8000,2.581
21.8400,2.612
21.8800,2.457
21.9200,2.491
21.9600,2.503
22.0000,2.523
22.0400,2.559
22.0800,2.557
22.1200,2.520
22.1600,2.531
22.2000,2.428
22.2400,2.525
22.2800,2.496
22.3200,2.521
22.3600,2.442
22.4000,2.592
22.4400,2.491
22.4800,2.524
22.5200,2.484
22.5600,2.511
22.6000,2.431
22.6400,2.408
22.6800,2.504
22.7200,2.584
22.7600,2.541
22.8000,2.514
22.8400,2.549
22.8800,2.523
22.9200,2.461
22.9600,2.498
23.0000,2.449
23.0400,2.472
23.0800,2.534
23.1200,2.550
23.1600,2.573
23.2000,2.473
23.2400,2.473
23.2800,2.533
23.3200,2.674
23.3600,2.726
23.4000,2.821
23.4400,2.809
23.4800,2.759
23.5200,2.726
23.5600,2.804
23.6000,2.647
23.6400,2.585
23.6800,2.450
23.7200,2.481
23.7600,2.458
23.8000,2.495
23.8400,2.404
23.8800,2.329
23.9200,2.332
23.9600,2.449
24.0000,2.429
24.0400,2.364
24.0800,2.392
24.1200,2.449
24.1600,2.509
24.2000,2.404
24.2400,2.366
24.2800,2.366
24.3200,2.358
24.3600,2.360
24.4000,2.419
24.4400,2.389
24.4800,2.526
24.5200,2.611
24.5600,2.632
24.6000,2.662
24.6400,2.672
24.6800,2.699
24.7200,2.577
24.7600,2.535
24.8000,2.451
24.8400,2.514
24.8800,2.357
24.9200,2.378
24.9600,2.340
25.0000,2.365
25.0400,2.238
25.0800,2.300
25.1200,2.289
25.1600,2.357
25.2000,2.324
25.2400,2.266
25.2800,2.321
25.3200,2.304
25.3600,2.245
25.4000,2.284
25.4400,2.269
25.4800,2.253
25.5200,2.375
25.5600,2.298
25.6000,2.289
25.6400,2.321
25.6800,2.294
25.7200,2.288
25.7600,2.253
25.8000,2.221
25.8400,2.210
25.8800,2.143
25.9200,2.211
25.9600,2.293
26.0000,2.213
26.0400,2.137
26.0800,2.228
26.1200,2.213
26.1600,2.270
26.2000,2.236
26.2400,2.187
26.2800,2.258
26.3200,2.256
26.3600,2.167
26.4000,2.145
26.4400,2.124
26.4800,2.163
26.5200,2.282
26.5600,2.167
26.6000,2.102
26.6400,2.245
26.6800,2.178
26.7200,2.203
26.7600,2.158
26.8000,2.244
26.8400,2.187
26.8800,2.253
26.9200,2.147
26.9600,2.137
27.0000,2.113
27.0400,2.152
27.0800,2.126
27.1200,2.232
27.1600,2.211
27.2000,2.169
27.2400,2.246
27.2800,2.131
27.3200,2.110
27.3600,2.115
27.4000,2.066
27.4400,2.052
27.4800,2.052
27.5200,2.157
27.5600,2.162
27.6000,2.134
27.6400,2.238
27.6800,2.161
27.7200,2.185
27.7600,2.149
27.8000,2.276
27.8400,2.142
27.8800,2.145
27.9200,2.192
27.9600,2.254
28.0000,2.230
28.0400,2.329
28.0800,2.363
28.1200,2.412
28.1600,2.503
28.2000,2.616
28.2400,2.769
28.2800,2.936
28.3200,3.218
28.3600,3.421
28.4000,3.645
28.4400,3.848
28.4800,3.774
28.5200,3.755
28.5600,3.504
28.6000,3.309
28.6400,3.080
28.6800,2.855
28.7200,2.691
28.7600,2.618
28.8000,2.488
28.8400,2.385
28.8800,2.354
28.9200,2.278
28.9600,2.173
29.0000,2.206
29.0400,2.114
29.0800,2.042
29.1200,2.113
29.1600,2.024
29.2000,1.988
29.2400,2.022
29.2800,2.088
29.3200,2.005
29.3600,1.978
29.4000,1.941
29.4400,1.952
29.4800,1.970
29.5200,1.885
29.5600,1.992
29.6000,1.905
29.6400,1.961
29.6800,1.955
29.7200,1.927
29.7600,1.931
29.8000,1.917
29.8400,1.903
29.8800,1.909
29.9200,1.865
29.9600,1.915
30.0000,1.902
30.0400,1.976
30.0800,1.920
30.1200,1.855
30.1600,1.949
30.2000,1.862
30.2400,1.943
30.2800,1.896
30.3200,1.918
30.3600,1.910
30.4000,1.948
30.4400,1.885
30.4800,1.826
30.5200,1.862
30.5600,1.898
30.6000,1.890
30.6400,1.932
30.6800,1.909
30.7200,2.002
30.7600,1.825
30.8000,1.860
30.8400,1.904
30.8800,1.861
30.9200,1.835
30.9600,1.846
31.0000,1.976
31.0400,1.919
31.0800,1.909
31.1200,1.889
31.1600,2.013
31.2000,1.983
31.2400,1.928
31.2800,1.953
31.3200,1.989
31.3600,2.040
31.4000,1.962
31.4400,2.041
31.4800,2.103
31.5200,2.091
31.5600,2.117
31.6000,2.284
31.6400,2.345
31.6800,2.508
31.7200,2.610
31.7600,2.721
31.8000,2.906
31.8400,3.023
31.8800,3.195
31.9200,3.142
31.9600,2.985
32.0000,2.972
32.0400,2.810
32.0800,2.759
32.1200,2.481
32.1600,2.402
32.2000,2.227
32.2400,2.237
32.2800,2.258
32.3200,2.116
32.3600,2.135
32.4000,1.994
32.4400,2.007
32.4800,2.016
32.5200,1.984
32.5600,1.954
32.6000,1.903
32.6400,1.933
32.6800,1.878
32.7200,1.869
32.7600,1.779
32.8000,1.889
32.8400,1.765
32.8800,1.863
32.9200,1.901
32.9600,1.834
33.0000,1.941
33.0400,2.356
33.0800,2.281
33.1200,1.812
33.1600,1.754
33.2000,1.759
33.2400,1.788
33.2800,1.787
33.3200,1.812
33.3600,1.830
33.4000,1.759
33.4400,1.884
33.4800,1.783
33.5200,1.783
33.5600,1.751
33.6000,1.738
33.6400,1.878
33.6800,1.820
33.7200,1.795
33.7600,1.839
33.8000,1.786
33.8400,1.779
33.8800,1.835
33.9200,1.830
33.9600,1.843
34.0000,1.910
34.0400,1.862
34.0800,1.939
34.1200,2.011
34.1600,2.121
34.2000,2.134
34.2400,2.144
34.2800,2.258
34.3200,2.266
34.3600,2.330
34.4000,2.353
34.4400,2.401
34.4800,2.302
34.5200,2.429
34.5600,2.387
34.6000,2.347
34.6400,2.286
34.6800,2.246
34.7200,2.246
34.7600,2.301
34.8000,2.158
34.8400,2.104
34.8800,1.964
34.9200,2.039
34.9600,1.913
35.0000,1.968
35.0400,1.927
35.0800,1.805
35.1200,1.815
35.1600,1.790
35.2000,1.773
35.2400,1.850
35.2800,1.881
35.3200,1.845
35.3600,1.784
35.4000,1.781
35.4400,1.761
35.4800,1.784
35.5200,1.795
35.5600,1.782
35.6000,1.819
35.6400,1.908
35.6800,1.879
35.7200,1.875
35.7600,1.935
35.8000,1.983
35.8400,1.946
35.8800,2.132
35.9200,2.156
35.9600,2.097
36.0000,2.322
36.0400,2.326
36.0800,2.471
36.1200,2.579
36.1600,2.742
36.2000,2.900
36.2400,3.059
36.2800,3.116
36.3200,3.228
36.3600,3.368
36.4000,3.226
36.4400,3.202
36.4800,3.114
36.5200,2.905
36.5600,2.777
36.6000,2.748
36.6400,2.567
36.6800,2.411
36.7200,2.375
36.7600,2.235
36.8000,2.147
36.8400,2.041
36.8800,1.923
36.9200,1.945
36.9600,1.949
37.0000,1.766
37.0400,1.829
37.0800,1.822
37.1200,1.699
37.1600,1.767
37.2000,1.738
37.2400,1.620
37.2800,1.691
37.3200,1.612
37.3600,1.651
37.4000,1.586
37.4400,1.526
37.4800,1.626
37.5200,1.555
37.5600,1.615
37.6000,1.594
37.6400,1.559
37.6800,1.576
37.7200,1.508
37.7600,1.500
37.8000,1.520
37.8400,1.472
37.8800,1.503
37.9200,1.459
37.9600,1.499
38.0000,1.518
38.0400,1.535
38.0800,1.505
38.1200,1.498
38.1600,1.543
38.2000,1.478
38.2400,1.457
38.2800,1.506
38.3200,1.510
38.3600,1.511
38.4000,1.549
38.4400,1.627
38.4800,1.601
38.5200,1.561
38.5600,1.513
38.6000,1.476
38.6400,1.475
38.6800,1.481
38.7200,1.502
38.7600,1.516
38.8000,1.468
38.8400,1.464
38.8800,1.456
38.9200,1.456
38.9600,1.454
39.0000,1.425
39.0400,1.492
39.0800,1.476
39.1200,1.435
39.1600,1.429
39.2000,1.428
39.2400,1.485
39.2800,1.523
39.3200,1.462
39.3600,1.495
39.4000,1.413
39.4400,1.471
39.4800,1.498
39.5200,1.557
39.5600,1.506
39.6000,1.494
39.6400,1.544
39.6800,1.522
39.7200,1.586
39.7600,1.539
39.8000,1.630
39.8400,1.645
39.8800,1.658
39.9200,1.697
39.9600,1.721
40.0000,1.793
40.0400,1.930
40.0800,1.982
40.1200,2.143
40.1600,2.233
40.2000,2.456
40.2400,2.736
40.2800,3.105
40.3200,3.548
40.3600,4.093
40.4000,4.878
40.4400,5.794
40.4800,6.770
40.5200,7.753
40.5600,8.426
40.6000,8.854
40.6400,8.750
40.6800,8.471
40.7200,7.807
40.7600,7.043
40.8000,6.242
40.8400,5.416
40.8800,4.716
40.9200,4.104
40.9600,3.843
41.0000,3.642
41.0400,3.552
41.0800,3.618
41.1200,3.629
41.1600,3.790
41.2000,3.650
41.2400,3.431
41.2800,3.300
41.3200,2.951
41.3600,2.818
41.4000,2.491
41.4400,2.302
41.4800,2.239
41.5200,2.012
41.5600,1.906
41.6000,1.769
41.6400,1.650
41.6800,1.521
41.7200,1.468
41.7600,1.482
41.8000,1.442
41.8400,1.440
41.8800,1.397
41.9200,1.352
41.9600,1.350
42.0000,1.330
42.0400,1.336
42.0800,1.364
42.1200,1.275
42.1600,1.344
42.2000,1.325
42.2400,1.312
42.2800,1.301
42.3200,1.301
42.3600,1.271
42.4000,1.262
42.4400,1.294
42.4800,1.254
42.5200,1.247
42.5600,1.192
42.6000,1.237
42.6400,1.263
42.6800,1.204
42.7200,1.190
42.7600,1.220
42.8000,1.165
42.8400,1.189
42.8800,1.217
42.9200,1.173
42.9600,1.202
43.0000,1.136
43.0400,1.183
43.0800,1.212
43.1200,1.125
43.1600,1.183
43.2000,1.126
43.2400,1.155
43.2800,1.132
43.3200,1.081
43.3600,1.126
43.4000,1.105
43.4400,1.087
43.4800,1.144
43.5200,1.079
43.5600,1.151
43.6000,1.179
43.6400,1.097
43.6800,1.139
43.7200,1.067
43.7600,1.121
43.8000,1.102
43.8400,1.121
43.8800,1.114
43.9200,1.075
43.9600,1.089
44.0000,1.082
44.0400,1.064
44.0800,1.035
44.1200,1.088
44.1600,1.033
44.2000,1.055
44.2400,1.074
44.2800,1.065
44.3200,1.032
44.3600,1.030
44.4000,1.096
44.4400,1.104
44.4800,1.019
44.5200,1.052
44.5600,1.077
44.6000,1.056
44.6400,1.000
44.6800,0.993
44.7200,1.026
44.7600,1.025
44.8000,1.034
44.8400,0.956
44.8800,1.056
44.9200,1.042
44.9600,1.043
45.0000,1.037
45.0400,1.024
45.0800,1.009
45.1200,1.109
45.1600,1.041
45.2000,0.981
45.2400,0.996
45.2800,1.027
45.3200,0.978
45.3600,1.037
45.4000,1.053
45.4400,1.093
45.4800,1.025
45.5200,1.004
45.5600,1.019
45.6000,0.972
45.6400,1.041
45.6800,1.056
45.7200,1.006
45.7600,1.006
45.8000,1.028
45.8400,1.030
45.8800,1.048
45.9200,0.975
45.9600,1.048
46.0000,1.026
46.0400,1.022
46.0800,1.014
46.1200,0.985
46.1600,0.953
46.2000,0.977
46.2400,0.970
46.2800,0.964
46.3200,1.020
46.3600,1.000
46.4000,1.064
46.4400,0.976
46.4800,0.930
46.5200,1.012
46.5600,1.030
46.6000,0.993
46.6400,0.951
46.6800,1.004
46.7200,1.016
46.7600,0.981
46.8000,0.986
46.8400,0.991
46.8800,1.003
46.9200,1.016
46.9600,1.024
47.0000,0.947
47.0400,1.024
47.0800,1.029
47.1200,1.048
47.1600,1.065
47.2000,1.063
47.2400,1.037
47.2800,1.045
47.3200,1.067
47.3600,1.106
47.4000,1.073
47.4400,1.104
47.4800,1.105
47.5200,1.141
47.5600,1.168
47.6000,1.188
47.6400,1.139
47.6800,1.080
47.7200,1.122
47.7600,1.138
47.8000,1.159
47.8400,1.171
47.8800,1.070
47.9200,1.156
47.9600,1.177
48.0000,1.141
48.0400,1.124
48.0800,1.106
48.1200,1.155
48.1600,1.089
48.2000,1.134
48.2400,1.091
48.2800,1.054
48.3200,1.053
48.3600,1.026
48.4000,1.043
48.4400,1.015
48.4800,0.990
48.5200,0.956
48.5600,0.974
48.6000,0.933
48.6400,0.987
48.6800,0.984
48.7200,0.910
48.7600,0.883
48.8000,0.905
48.8400,0.919
48.8800,0.952
48.9200,0.941
48.9600,0.956
49.0000,0.916
49.0400,0.935
49.0800,0.920
49.1200,0.891
49.1600,0.952
49.2000,0.851
49.2400,0.881
49.2800,0.865
49.3200,0.903
49.3600,0.923
49.4000,0.886
49.4400,0.856
49.4800,0.880
49.5200,0.866
49.5600,0.875
49.6000,0.898
49.6400,0.927
49.6800,0.846
49.7200,0.846
49.7600,0.882
49.8000,0.879
49.8400,0.905
49.8800,0.883
49.9200,0.886
49.9600,0.952
50.0000,0.993
50.0400,1.017
50.0800,1.151
50.1200,1.123
50.1600,1.178
50.2000,1.221
50.2400,1.270
50.2800,1.229
50.3200,1.197
50.3600,1.173
50.4000,1.164
50.4400,1.030
50.4800,1.058
50.5200,1.007
50.5600,0.997
50.6000,0.895
50.6400,0.917
50.6800,0.874
50.7200,0.916
50.7600,0.899
50.8000,0.868
50.8400,0.843
50.8800,0.849
50.9200,0.791
50.9600,0.840
51.0000,0.848
51.0400,0.788
51.0800,0.872
51.1200,0.768
51.1600,0.751
51.2000,0.833
51.2400,0.782
51.2800,0.796
51.3200,0.796
51.3600,0.811
51.4000,0.814
51.4400,0.804
51.4800,0.745
51.5200,0.772
51.5600,0.787
51.6000,0.803
51.6400,0.826
51.6800,0.788
51.7200,0.821
51.7600,0.785
51.8000,0.796
51.8400,0.771
51.8800,0.738
51.9200,0.784
51.9600,0.783
52.0000,0.829
52.0400,0.788
52.0800,0.756
52.1200,0.779
52.1600,0.780
52.2000,0.835
52.2400,0.794
52.2800,0.802
52.3200,0.801
52.3600,0.819
52.4000,0.824
52.4400,0.772
52.4800,0.760
52.5200,0.799
52.5600,0.743
52.6000,0.766
52.6400,0.753
52.6800,0.737
52.7200,0.765
52.7600,0.785
52.8000,0.724
52.8400,0.699
52.8800,0.728
52.9200,0.680
52.9600,0.721
53.0000,0.753
53.0400,0.751
53.0800,0.725
53.1200,0.759
53.1600,0.723
53.2000,0.705
53.2400,0.705
53.2800,0.753
53.3200,0.769
53.3600,0.755
53.4000,0.750
53.4400,0.737
53.4800,0.702
53.5200,0.763
53.5600,0.764
53.6000,0.708
53.6400,0.766
53.6800,0.760
53.7200,0.741
53.7600,0.754
53.8000,0.736
53.8400,0.758
53.8800,0.746
53.9200,0.726
53.9600,0.716
54.0000,0.747
54.0400,0.779
54.0800,0.726
54.1200,0.692
54.1600,0.688
54.2000,0.685
54.2400,0.713
54.2800,0.690
54.3200,0.736
54.3600,0.725
54.4000,0.718
54.4400,0.700
54.4800,0.710
54.5200,0.768
54.5600,0.750
54.6000,0.674
54.6400,0.703
54.6800,0.709
54.7200,0.728
54.7600,0.739
54.8000,0.724
54.8400,0.708
54.8800,0.724
54.9200,0.708
54.9600,0.705
55.0000,0.678
55.0400,0.773
55.0800,0.731
55.1200,0.738
55.1600,0.693
55.2000,0.721
55.2400,0.715
55.2800,0.728
55.3200,0.733
55.3600,0.733
55.4000,0.679
55.4400,0.734
55.4800,0.720
55.5200,0.692
55.5600,0.663
55.6000,0.772
55.6400,0.752
55.6800,0.687
55.7200,0.724
55.7600,0.765
55.8000,0.721
55.8400,0.768
55.8800,0.707
55.9200,0.761
55.9600,0.744
56.0000,0.726
56.0400,0.729
56.0800,0.736
56.1200,0.771
56.1600,0.752
56.2000,0.762
56.2400,0.800
56.2800,0.830
56.3200,0.814
56.3600,0.872
56.4000,0.916
56.4400,0.895
56.4800,0.900
56.5200,0.924
56.5600,0.968
56.6000,0.966
56.6400,0.989
56.6800,1.122
56.7200,1.083
56.7600,1.130
56.8000,1.162
56.8400,1.107
56.8800,1.095
56.9200,1.016
56.9600,1.026
57.0000,1.012
57.0400,0.914
57.0800,0.941
57.1200,0.887
57.1600,0.888
57.2000,0.894
57.2400,0.819
57.2800,0.824
57.3200,0.806
57.3600,0.779
57.4000,0.811
57.4400,0.731
57.4800,0.761
57.5200,0.727
57.5600,0.735
57.6000,0.762
57.6400,0.708
57.6800,0.731
57.7200,0.716
57.7600,0.706
57.8000,0.698
57.8400,0.771
57.8800,0.706
57.9200,0.730
57.9600,0.741
58.0000,0.760
58.0400,0.742
58.0800,0.761
58.1200,0.784
58.1600,0.775
58.2000,0.762
58.2400,0.792
58.2800,0.807
58.3200,0.802
58.3600,0.822
58.4000,0.883
58.4400,0.899
58.4800,0.910
58.5200,0.925
58.5600,0.928
58.6000,1.037
58.6400,1.067
58.6800,1.098
58.7200,1.119
58.7600,1.205
58.8000,1.184
58.8400,1.207
58.8800,1.157
58.9200,1.205
58.9600,1.159
59.0000,1.124
59.0400,1.059
59.0800,1.114
59.1200,1.025
59.1600,1.007
59.2000,0.920
59.2400,0.933
59.2800,0.889
59.3200,0.803
59.3600,0.836
59.4000,0.819
59.4400,0.777
59.4800,0.811
59.5200,0.753
59.5600,0.762
59.6000,0.752
59.6400,0.736
59.6800,0.738
59.7200,0.744
59.7600,0.700
59.8000,0.684
59.8400,0.708
59.8800,0.707
59.9200,0.711
59.9600,0.669
60.0000,0.648
60.0400,0.653
60.0800,0.646
60.1200,0.644
60.1600,0.639
60.2000,0.635
60.2400,0.648
60.2800,0.608
60.3200,0.641
60.3600,0.623
60.4000,0.629
60.4400,0.633
60.4800,0.605
60.5200,0.629
60.5600,0.630
60.6000,0.655
60.6400,0.610
60.6800,0.568
60.7200,0.588
60.7600,0.612
60.8000,0.552
60.8400,0.600
60.8800,0.637
60.9200,0.660
60.9600,0.591
61.0000,0.594
61.0400,0.599
61.0800,0.589
61.1200,0.630
61.1600,0.637
61.2000,0.584
61.2400,0.611
61.2800,0.605
61.3200,0.649
61.3600,0.609
61.4000,0.591
61.4400,0.602
61.4800,0.618
61.5200,0.618
61.5600,0.636
61.6000,0.633
61.6400,0.580
61.6800,0.697
61.7200,0.748
61.7600,0.706
61.8000,0.645
61.8400,0.642
61.8800,0.658
61.9200,0.654
61.9600,0.652
62.0000,0.645
62.0400,0.667
62.0800,0.628
62.1200,0.641
62.1600,0.652
62.2000,0.622
62.2400,0.624
62.2800,0.672
62.3200,0.669
62.3600,0.636
62.4000,0.680
