theta,intensity
5.0000,2.709
5.0400,3.078
5.0800,3.106
5.1200,3.004
5.1600,3.069
5.2000,2.874
5.2400,2.920
5.2800,2.973
5.3200,2.916
5.3600,2.691
5.4000,2.775
5.4400,2.809
5.4800,2.745
5.5200,2.688
5.5600,2.701
5.6000,2.590
5.6400,2.544
5.6800,2.593
5.7200,2.527
5.7600,2.525
5.8000,2.498
5.8400,2.499
5.8800,2.420
5.9200,2.409
5.9600,2.317
6.0000,2.296
6.0400,2.305
6.0800,2.334
6.1200,2.251
6.1600,2.198
6.2000,2.183
6.2400,2.186
6.2800,2.080
6.3200,2.044
6.3600,2.078
6.4000,1.998
6.4400,1.924
6.4800,1.912
6.5200,1.885
6.5600,1.893
6.6000,1.796
6.6400,1.834
6.6800,1.850
6.7200,1.724
6.7600,1.738
6.8000,1.687
6.8400,1.607
6.8800,1.689
6.9200,1.607
6.9600,1.617
7.0000,1.545
7.0400,1.591
7.0800,1.537
7.1200,1.522
7.1600,1.507
7.2000,1.495
7.2400,1.479
7.2800,1.448
7.3200,1.487
7.3600,1.408
7.4000,1.420
7.4400,1.417
7.4800,1.401
7.5200,1.429
7.5600,1.371
7.6000,1.399
7.6400,1.461
7.6800,1.407
7.7200,1.354
7.7600,1.361
7.8000,1.388
7.8400,1.434
7.8800,1.375
7.9200,1.328
7.9600,1.393
8.0000,1.380
8.0400,1.372
8.0800,1.410
8.1200,1.339
8.1600,1.401
8.2000,1.335
8.2400,1.387
8.2800,1.380
8.3200,1.349
8.3600,1.317
8.4000,1.395
8.4400,1.373
8.4800,1.399
8.5200,1.330
8.5600,1.343
8.6000,1.373
8.6400,1.388
8.6800,1.354
8.7200,1.406
8.7600,1.343
8.8000,1.343
8.8400,1.339
8.8800,1.341
8.9200,1.334
8.9600,1.298
9.0000,1.339
9.0400,1.358
9.0800,1.354
9.1200,1.311
9.1600,1.352
9.2000,1.316
9.2400,1.353
9.2800,1.371
9.3200,1.346
9.3600,1.289
9.4000,1.338
9.4400,1.306
9.4800,1.310
9.5200,1.285
9.5600,1.292
9.6000,1.315
9.6400,1.301
9.6800,1.297
9.7200,1.282
9.7600,1.268
9.8000,1.337
9.8400,1.344
9.8800,1.330
9.9200,1.299
9.9600,1.309
10.0000,1.303
10.0400,1.271
10.0800,1.274
10.1200,1.296
10.1600,1.311
10.2000,1.299
10.2400,1.250
10.2800,1.249
10.3200,1.292
10.3600,1.270
10.4000,1.276
10.4400,1.291
10.4800,1.272
10.5200,1.190
10.5600,1.268
10.6000,1.279
10.6400,1.227
10.6800,1.268
10.7200,1.274
10.7600,1.299
10.8000,1.296
10.8400,1.236
10.8800,1.222
10.9200,1.303
10.9600,1.286
11.0000,1.246
11.0400,1.212
11.0800,1.244
11.1200,1.271
11.1600,1.296
11.2000,1.263
11.2400,1.219
11.2800,1.269
11.3200,1.261
11.3600,1.218
11.4000,1.265
11.4400,1.256
11.4800,1.260
11.5200,1.300
11.5600,1.217
11.6000,1.222
11.6400,1.234
11.6800,1.282
11.7200,1.225
11.7600,1.227
11.8000,1.202
11.8400,1.172
11.8800,1.212
11.9200,1.270
11.9600,1.243
12.0000,1.238
12.0400,1.231
12.0800,1.209
12.1200,1.220
12.1600,1.196
12.2000,1.190
12.2400,1.200
12.2800,1.232
12.3200,1.184
12.3600,1.200
12.4000,1.222
12.4400,1.217
12.4800,1.195
12.5200,1.240
12.5600,1.236
12.6000,1.152
12.6400,1.179
12.6800,1.192
12.7200,1.124
12.7600,1.152
12.8000,1.158
12.8400,1.193
12.8800,1.202
12.9200,1.237
12.9600,1.136
13.0000,1.208
13.0400,1.171
13.0800,1.176
13.1200,1.143
13.1600,1.207
13.2000,1.149
13.2400,1.158
13.2800,1.173
13.3200,1.170
13.3600,1.192
13.4000,1.212
13.4400,1.146
13.4800,1.169
13.5200,1.233
13.5600,1.185
13.6000,1.188
13.6400,1.121
13.6800,1.186
13.7200,1.134
13.7600,1.156
13.8000,1.155
13.8400,1.196
13.8800,1.158
13.9200,1.157
13.9600,1.184
14.0000,1.209
14.0400,1.173
14.0800,1.124
14.1200,1.146
14.1600,1.187
14.2000,1.161
14.2400,1.133
14.2800,1.131
14.3200,1.178
14.3600,1.128
14.4000,1.126
14.4400,1.133
14.4800,1.156
14.5200,1.158
14.5600,1.165
14.6000,1.124
14.6400,1.118
14.6800,1.151
14.7200,1.119
14.7600,1.106
14.8000,1.113
14.8400,1.126
14.8800,1.149
14.9200,1.109
14.9600,1.107
15.0000,1.134
15.0400,1.137
15.0800,1.161
15.1200,1.129
15.1600,1.087
15.2000,1.128
15.2400,1.108
15.2800,1.062
15.3200,1.107
15.3600,1.097
15.4000,1.147
15.4400,1.183
15.4800,1.100
15.5200,1.136
15.5600,1.080
15.6000,1.071
15.6400,1.073
15.6800,1.106
15.7200,1.065
15.7600,1.067
15.8000,1.087
15.8400,1.076
15.8800,1.061
15.9200,1.095
15.9600,1.054
16.0000,1.080
16.0400,1.107
16.0800,1.069
16.1200,1.078
16.1600,1.075
16.2000,1.068
16.2400,1.057
16.2800,1.038
16.3200,1.107
16.3600,1.051
16.4000,1.057
16.4400,1.073
16.4800,1.084
16.5200,1.101
16.5600,1.044
16.6000,1.041
16.6400,1.107
16.6800,1.064
16.7200,1.080
16.7600,1.054
16.8000,1.017
16.8400,1.044
16.8800,1.066
16.9200,1.062
16.9600,1.063
17.0000,1.024
17.0400,1.108
17.0800,1.118
17.1200,1.058
17.1600,1.075
17.2000,1.053
17.2400,1.079
17.2800,1.009
17.3200,1.025
17.3600,1.068
17.4000,1.073
17.4400,1.005
17.4800,1.019
17.5200,1.075
17.5600,1.069
17.6000,1.004
17.6400,0.998
17.6800,1.056
17.7200,1.033
17.7600,1.003
17.8000,1.012
17.8400,1.035
17.8800,1.011
17.9200,1.031
17.9600,1.034
18.0000,1.002
18.0400,1.023
18.0800,0.981
18.1200,1.061
18.1600,1.011
18.2000,1.012
18.2400,1.022
18.2800,0.972
18.3200,1.039
18.3600,1.005
18.4000,1.007
18.4400,1.025
18.4800,0.970
18.5200,0.983
18.5600,1.010
18.6000,0.995
18.6400,0.952
18.6800,0.996
18.7200,0.963
18.7600,1.015
18.8000,1.011
18.8400,0.982
18.8800,0.985
18.9200,0.975
18.9600,0.990
19.0000,1.003
19.0400,1.012
19.0800,0.995
19.1200,0.967
19.1600,0.992
19.2000,0.944
19.2400,0.983
19.2800,0.984
19.3200,0.966
19.3600,0.906
19.4000,0.950
19.4400,0.968
19.4800,0.965
19.5200,0.951
19.5600,1.007
19.6000,0.955
19.6400,0.926
19.6800,0.936
19.7200,0.934
19.7600,0.903
19.8000,0.965
19.8400,0.949
19.8800,0.979
19.9200,0.941
19.9600,0.950
20.0000,0.935
20.0400,0.949
20.0800,0.936
20.1200,0.975
20.1600,0.953
20.2000,0.952
20.2400,0.957
20.2800,0.954
20.3200,0.916
20.3600,0.936
20.4000,0.907
20.4400,0.900
20.4800,0.960
20.5200,0.902
20.5600,0.925
20.6000,0.900
20.6400,0.929
20.6800,0.948
20.7200,0.944
20.7600,0.899
20.8000,0.899
20.8400,0.914
20.8800,0.923
20.9200,0.892
20.9600,0.927
21.0000,0.904
21.0400,0.884
21.0800,0.902
21.1200,0.914
21.1600,0.942
21.2000,0.906
21.2400,0.906
21.2800,0.902
21.3200,0.879
21.3600,0.929
21.4000,0.943
21.4400,0.923
21.4800,0.884
21.5200,0.865
21.5600,0.867
21.6000,0.893
21.6400,0.860
21.6800,0.886
21.7200,0.865
21.7600,0.850
21.8000,0.857
21.8400,0.883
21.8800,0.875
21.9200,0.912
21.9600,0.849
22.0000,0.892
22.0400,0.861
22.0800,0.905
22.1200,0.906
22.1600,0.882
22.2000,0.886
22.2400,0.867
22.2800,0.879
22.3200,0.899
22.3600,0.820
22.4000,0.823
22.4400,0.834
22.4800,0.877
22.5200,0.846
22.5600,0.847
22.6000,0.925
22.6400,0.828
22.6800,0.853
22.7200,0.872
22.7600,0.880
22.8000,0.881
22.8400,0.846
22.8800,0.865
22.9200,0.852
22.9600,0.820
23.0000,0.866
23.0400,0.859
23.0800,0.872
23.1200,0.814
23.1600,0.812
23.2000,0.826
23.2400,0.828
23.2800,0.784
23.3200,0.818
23.3600,0.789
23.4000,0.869
23.4400,0.862
23.4800,0.815
23.5200,0.801
23.5600,0.837
23.6000,0.803
23.6400,0.795
23.6800,0.801
23.7200,0.793
23.7600,0.832
23.8000,0.779
23.8400,0.783
23.8800,0.800
23.9200,0.809
23.9600,0.823
24.0000,0.794
24.0400,0.795
24.0800,0.778
24.1200,0.792
24.1600,0.777
24.2000,0.820
24.2400,0.786
24.2800,0.804
24.3200,0.827
24.3600,0.818
24.4000,0.808
24.4400,0.792
24.4800,0.812
24.5200,0.799
24.5600,0.805
24.6000,0.812
24.6400,0.798
24.6800,0.773
24.7200,0.797
24.7600,0.781
24.8000,0.777
24.8400,0.782
24.8800,0.839
24.9200,0.775
24.9600,0.744
25.0000,0.772
25.0400,0.770
25.0800,0.772
25.1200,0.783
25.1600,0.754
25.2000,0.812
25.2400,0.782
25.2800,0.777
25.3200,0.771
25.3600,0.744
25.4000,0.751
25.4400,0.725
25.4800,0.743
25.5200,0.749
25.5600,0.767
25.6000,0.734
25.6400,0.737
25.6800,0.760
25.7200,0.764
25.7600,0.757
25.8000,0.732
25.8400,0.774
25.8800,0.750
25.9200,0.771
25.9600,0.710
26.0000,0.716
26.0400,0.734
26.0800,0.730
26.1200,0.744
26.1600,0.753
26.2000,0.771
26.2400,0.733
26.2800,0.715
26.3200,0.705
26.3600,0.735
26.4000,0.772
26.4400,0.734
26.4800,0.736
26.5200,0.763
26.5600,0.758
26.6000,0.731
26.6400,0.733
26.6800,0.694
26.7200,0.733
26.7600,0.664
26.8000,0.719
26.8400,0.693
26.8800,0.694
26.9200,0.671
26.9600,0.714
27.0000,0.706
27.0400,0.701
27.0800,0.711
27.1200,0.739
27.1600,0.723
27.2000,0.688
27.2400,0.695
27.2800,0.698
27.3200,0.691
27.3600,0.687
27.4000,0.691
27.4400,0.675
27.4800,0.679
27.5200,0.673
27.5600,0.690
27.6000,0.704
27.6400,0.716
27.6800,0.701
27.7200,0.683
27.7600,0.695
27.8000,0.665
27.8400,0.653
27.8800,0.682
27.9200,0.681
27.9600,0.704
28.0000,0.697
28.0400,0.692
28.0800,0.654
28.1200,0.671
28.1600,0.672
28.2000,0.711
28.2400,0.656
28.2800,0.648
28.3200,0.689
28.3600,0.674
28.4000,0.654
28.4400,0.678
28.4800,0.692
28.5200,0.649
28.5600,0.643
28.6000,0.695
28.6400,0.636
28.6800,0.691
28.7200,0.664
28.7600,0.638
28.8000,0.616
28.8400,0.599
28.8800,0.637
28.9200,0.676
28.9600,0.654
29.0000,0.659
29.0400,0.642
29.0800,0.626
29.1200,0.644
29.1600,0.641
29.2000,0.634
29.2400,0.641
29.2800,0.662
29.3200,0.633
29.3600,0.664
29.4000,0.639
29.4400,0.631
29.4800,0.612
29.5200,0.628
29.5600,0.633
29.6000,0.631
29.6400,0.629
29.6800,0.616
29.7200,0.608
29.7600,0.631
29.8000,0.618
29.8400,0.575
29.8800,0.618
29.9200,0.606
29.9600,0.620
30.0000,0.624
30.0400,0.621
30.0800,0.646
30.1200,0.625
30.1600,0.605
30.2000,0.619
30.2400,0.622
30.2800,0.596
30.3200,0.608
30.3600,0.612
30.4000,0.610
30.4400,0.608
30.4800,0.613
30.5200,0.600
30.5600,0.591
30.6000,0.601
30.6400,0.591
30.6800,0.613
30.7200,0.620
30.7600,0.565
30.8000,0.597
30.8400,0.620
30.8800,0.566
30.9200,0.590
30.9600,0.610
31.0000,0.577
31.0400,0.598
31.0800,0.569
31.1200,0.574
31.1600,0.579
31.2000,0.561
31.2400,0.592
31.2800,0.588
31.3200,0.590
31.3600,0.571
31.4000,0.574
31.4400,0.587
31.4800,0.539
31.5200,0.574
31.5600,0.556
31.6000,0.562
31.6400,0.576
31.6800,0.548
31.7200,0.577
31.7600,0.535
31.8000,0.567
31.8400,0.579
31.8800,0.575
31.9200,0.607
31.9600,0.570
32.0000,0.582
32.0400,0.573
32.0800,0.560
32.1200,0.575
32.1600,0.571
32.2000,0.543
32.2400,0.557
32.2800,0.524
32.3200,0.547
32.3600,0.563
32.4000,0.548
32.4400,0.573
32.4800,0.549
32.5200,0.555
32.5600,0.555
32.6000,0.554
32.6400,0.558
32.6800,0.561
32.7200,0.541
32.7600,0.513
32.8000,0.539
32.8400,0.544
32.8800,0.579
32.9200,0.540
32.9600,0.502
33.0000,0.501
33.0400,0.533
33.0800,0.558
33.1200,0.545
33.1600,0.556
33.2000,0.547
33.2400,0.564
33.2800,0.522
33.3200,0.509
33.3600,0.557
33.4000,0.530
33.4400,0.537
33.4800,0.506
33.5200,0.501
33.5600,0.529
33.6000,0.531
33.6400,0.589
33.6800,0.555
33.7200,0.547
33.7600,0.511
33.8000,0.513
33.8400,0.540
33.8800,0.499
33.9200,0.546
33.9600,0.529
34.0000,0.524
34.0400,0.523
34.0800,0.504
34.1200,0.529
34.1600,0.513
34.2000,0.505
34.2400,0.492
34.2800,0.526
34.3200,0.521
34.3600,0.494
34.4000,0.523
34.4400,0.548
34.4800,0.545
34.5200,0.493
34.5600,0.492
34.6000,0.484
34.6400,0.493
34.6800,0.508
34.7200,0.485
34.7600,0.535
34.8000,0.486
34.8400,0.523
34.8800,0.505
34.9200,0.502
34.9600,0.482
35.0000,0.490
35.0400,0.508
35.0800,0.479
35.1200,0.473
35.1600,0.501
35.2000,0.495
35.2400,0.505
35.2800,0.505
35.3200,0.489
35.3600,0.488
35.4000,0.477
35.4400,0.500
35.4800,0.504
35.5200,0.491
35.5600,0.498
35.6000,0.503
35.6400,0.474
35.6800,0.482
35.7200,0.509
35.7600,0.512
35.8000,0.493
35.8400,0.510
35.8800,0.481
35.9200,0.472
35.9600,0.480
36.0000,0.495
36.0400,0.494
36.0800,0.502
36.1200,0.501
36.1600,0.481
36.2000,0.492
36.2400,0.490
36.2800,0.501
36.3200,0.506
36.3600,0.504
36.4000,0.502
36.4400,0.508
36.4800,0.496
36.5200,0.523
36.5600,0.480
36.6000,0.479
36.6400,0.511
36.6800,0.483
36.7200,0.500
36.7600,0.501
36.8000,0.489
36.8400,0.540
36.8800,0.492
36.9200,0.497
36.9600,0.505
37.0000,0.507
37.0400,0.518
37.0800,0.549
37.1200,0.532
37.1600,0.536
37.2000,0.539
37.2400,0.570
37.2800,0.561
37.3200,0.554
37.3600,0.576
37.4000,0.606
37.4400,0.631
37.4800,0.618
37.5200,0.619
37.5600,0.642
37.6000,0.676
37.6400,0.676
37.6800,0.694
37.7200,0.719
37.7600,0.795
37.8000,0.878
37.8400,0.930
37.8800,1.037
37.9200,1.160
37.9600,1.463
38.0000,1.683
38.0400,2.154
38.0800,3.033
38.1200,4.634
38.1600,7.739
38.2000,12.375
38.2400,16.813
38.2800,18.849
38.3200,18.285
38.3600,15.131
38.4000,11.357
38.4400,7.785
38.4800,4.861
38.5200,3.157
38.5600,2.270
38.6000,1.738
38.6400,1.436
38.6800,1.234
38.7200,1.026
38.7600,0.958
38.8000,0.899
38.8400,0.823
38.8800,0.825
38.9200,0.749
38.9600,0.721
39.0000,0.697
39.0400,0.674
39.0800,0.660
39.1200,0.615
39.1600,0.562
39.2000,0.596
39.2400,0.555
39.2800,0.552
39.3200,0.541
39.3600,0.521
39.4000,0.515
39.4400,0.513
39.4800,0.507
39.5200,0.496
39.5600,0.499
39.6000,0.463
39.6400,0.443
39.6800,0.490
39.7200,0.452
39.7600,0.476
39.8000,0.454
39.8400,0.441
39.8800,0.458
39.9200,0.450
39.9600,0.451
40.0000,0.467
40.0400,0.463
40.0800,0.406
40.1200,0.422
40.1600,0.410
40.2000,0.441
40.2400,0.415
40.2800,0.454
40.3200,0.440
40.3600,0.439
40.4000,0.424
40.4400,0.420
40.4800,0.412
40.5200,0.393
40.5600,0.387
40.6000,0.429
40.6400,0.403
40.6800,0.417
40.7200,0.422
40.7600,0.434
40.8000,0.413
40.8400,0.400
40.8800,0.424
40.9200,0.424
40.9600,0.399
41.0000,0.418
41.0400,0.423
41.0800,0.394
41.1200,0.394
41.1600,0.416
41.2000,0.336
41.2400,0.433
41.2800,0.402
41.3200,0.408
41.3600,0.399
41.4000,0.392
41.4400,0.378
41.4800,0.410
41.5200,0.374
41.5600,0.392
41.6000,0.379
41.6400,0.402
41.6800,0.405
41.7200,0.362
41.7600,0.383
41.8000,0.389
41.8400,0.416
41.8800,0.370
41.9200,0.345
41.9600,0.382
42.0000,0.385
42.0400,0.399
42.0800,0.407
42.1200,0.371
42.1600,0.400
42.2000,0.395
42.2400,0.388
42.2800,0.363
42.3200,0.377
42.3600,0.381
42.4000,0.372
42.4400,0.371
42.4800,0.392
42.5200,0.350
42.5600,0.376
42.6000,0.368
42.6400,0.353
42.6800,0.361
42.7200,0.382
42.7600,0.372
42.8000,0.360
42.8400,0.397
42.8800,0.394
42.9200,0.359
42.9600,0.383
43.0000,0.383
43.0400,0.393
43.0800,0.386
43.1200,0.361
43.1600,0.379
43.2000,0.412
43.2400,0.405
43.2800,0.375
43.3200,0.381
43.3600,0.399
43.4000,0.399
43.4400,0.403
43.4800,0.415
43.5200,0.410
43.5600,0.406
43.6000,0.444
43.6400,0.412
43.6800,0.445
43.7200,0.442
43.7600,0.443
43.8000,0.474
43.8400,0.472
43.8800,0.490
43.9200,0.499
43.9600,0.527
44.0000,0.538
44.0400,0.566
44.0800,0.578
44.1200,0.654
44.1600,0.699
44.2000,0.755
44.2400,0.854
44.2800,1.049
44.3200,1.207
44.3600,1.525
44.4000,1.805
44.4400,2.421
44.4800,3.018
44.5200,3.768
44.5600,4.176
44.6000,4.291
44.6400,3.917
44.6800,3.482
44.7200,2.846
44.7600,2.305
44.8000,1.752
44.8400,1.349
44.8800,1.078
44.9200,0.900
44.9600,0.771
45.0000,0.687
45.0400,0.635
45.0800,0.544
45.1200,0.541
45.1600,0.476
45.2000,0.496
45.2400,0.448
45.2800,0.404
45.3200,0.416
45.3600,0.406
45.4000,0.396
45.4400,0.406
45.4800,0.363
45.5200,0.387
45.5600,0.379
45.6000,0.393
45.6400,0.355
45.6800,0.336
45.7200,0.350
45.7600,0.341
45.8000,0.348
45.8400,0.340
45.8800,0.340
45.9200,0.313
45.9600,0.350
46.0000,0.317
46.0400,0.323
46.0800,0.321
46.1200,0.315
46.1600,0.339
46.2000,0.311
46.2400,0.313
46.2800,0.343
46.3200,0.321
46.3600,0.303
46.4000,0.301
46.4400,0.312
46.4800,0.323
46.5200,0.319
46.5600,0.282
46.6000,0.280
46.6400,0.312
46.6800,0.290
46.7200,0.297
46.7600,0.292
46.8000,0.281
46.8400,0.287
46.8800,0.299
46.9200,0.282
46.9600,0.290
47.0000,0.298
47.0400,0.302
47.0800,0.295
47.1200,0.273
47.1600,0.291
47.2000,0.293
47.2400,0.284
47.2800,0.297
47.3200,0.283
47.3600,0.322
47.4000,0.271
47.4400,0.276
47.4800,0.296
47.5200,0.306
47.5600,0.294
47.6000,0.290
47.6400,0.267
47.6800,0.263
47.7200,0.292
47.7600,0.279
47.8000,0.270
47.8400,0.253
47.8800,0.263
47.9200,0.285
47.9600,0.273
48.0000,0.283
48.0400,0.271
48.0800,0.301
48.1200,0.296
48.1600,0.252
48.2000,0.274
48.2400,0.265
48.2800,0.262
48.3200,0.276
48.3600,0.275
48.4000,0.276
48.4400,0.288
48.4800,0.257
48.5200,0.286
48.5600,0.280
48.6000,0.268
48.6400,0.263
48.6800,0.262
48.7200,0.275
48.7600,0.272
48.8000,0.254
48.8400,0.261
48.8800,0.276
48.9200,0.270
48.9600,0.256
49.0000,0.271
49.0400,0.258
49.0800,0.269
49.1200,0.238
49.1600,0.252
49.2000,0.265
49.2400,0.243
49.2800,0.246
49.3200,0.251
49.3600,0.284
49.4000,0.258
49.4400,0.253
49.4800,0.247
49.5200,0.241
49.5600,0.272
49.6000,0.286
49.6400,0.245
49.6800,0.244
49.7200,0.263
49.7600,0.240
49.8000,0.271
49.8400,0.262
49.8800,0.234
49.9200,0.243
49.9600,0.243
50.0000,0.234
50.0400,0.245
50.0800,0.242
50.1200,0.249
50.1600,0.242
50.2000,0.252
50.2400,0.264
50.2800,0.249
50.3200,0.238
50.3600,0.243
50.4000,0.247
50.4400,0.274
50.4800,0.249
50.5200,0.239
50.5600,0.231
50.6000,0.232
50.6400,0.249
50.6800,0.215
50.7200,0.256
50.7600,0.258
50.8000,0.254
50.8400,0.228
50.8800,0.240
50.9200,0.247
50.9600,0.239
51.0000,0.255
51.0400,0.249
51.0800,0.251
51.1200,0.255
51.1600,0.253
51.2000,0.222
51.2400,0.247
51.2800,0.235
51.3200,0.249
51.3600,0.254
51.4000,0.216
51.4400,0.239
51.4800,0.238
51.5200,0.222
51.5600,0.235
51.6000,0.231
51.6400,0.255
51.6800,0.217
51.7200,0.260
51.7600,0.232
51.8000,0.246
51.8400,0.252
51.8800,0.248
51.9200,0.229
51.9600,0.231
52.0000,0.218
52.0400,0.244
52.0800,0.239
52.1200,0.255
52.1600,0.220
52.2000,0.207
52.2400,0.224
52.2800,0.205
52.3200,0.213
52.3600,0.232
52.4000,0.216
52.4400,0.216
52.4800,0.253
52.5200,0.230
52.5600,0.227
52.6000,0.239
52.6400,0.251
52.6800,0.220
52.7200,0.245
52.7600,0.225
52.8000,0.251
52.8400,0.238
52.8800,0.209
52.9200,0.217
52.9600,0.247
53.0000,0.236
53.0400,0.228
53.0800,0.236
53.1200,0.226
53.1600,0.216
53.2000,0.217
53.2400,0.227
53.2800,0.217
53.3200,0.229
53.3600,0.241
53.4000,0.221
53.4400,0.232
53.4800,0.237
53.5200,0.230
53.5600,0.206
53.6000,0.209
53.6400,0.212
53.6800,0.215
53.7200,0.222
53.7600,0.222
53.8000,0.220
53.8400,0.205
53.8800,0.228
53.9200,0.206
53.9600,0.216
54.0000,0.197
54.0400,0.199
54.0800,0.219
54.1200,0.221
54.1600,0.230
54.2000,0.211
54.2400,0.220
54.2800,0.233
54.3200,0.239
54.3600,0.201
54.4000,0.219
54.4400,0.210
54.4800,0.222
54.5200,0.214
54.5600,0.229
54.6000,0.206
54.6400,0.228
54.6800,0.220
54.7200,0.225
54.7600,0.202
54.8000,0.210
54.8400,0.221
54.8800,0.211
54.9200,0.203
54.9600,0.214
55.0000,0.206
55.0400,0.207
55.0800,0.213
55.1200,0.208
55.1600,0.202
55.2000,0.216
55.2400,0.211
55.2800,0.228
55.3200,0.199
55.3600,0.215
55.4000,0.197
55.4400,0.226
55.4800,0.215
55.5200,0.218
55.5600,0.214
55.6000,0.230
55.6400,0.247
55.6800,0.196
55.7200,0.208
55.7600,0.205
55.8000,0.198
55.8400,0.213
55.8800,0.214
55.9200,0.228
55.9600,0.205
56.0000,0.210
56.0400,0.228
56.0800,0.195
56.1200,0.200
56.1600,0.198
56.2000,0.199
56.2400,0.206
56.2800,0.201
56.3200,0.206
56.3600,0.197
56.4000,0.198
56.4400,0.236
56.4800,0.192
56.5200,0.194
56.5600,0.206
56.6000,0.214
56.6400,0.200
56.6800,0.222
56.7200,0.185
56.7600,0.205
56.8000,0.207
56.8400,0.207
56.8800,0.186
56.9200,0.186
56.9600,0.213
57.0000,0.208
57.0400,0.205
57.0800,0.211
57.1200,0.201
57.1600,0.205
57.2000,0.199
57.2400,0.206
57.2800,0.198
57.3200,0.195
57.3600,0.189
57.4000,0.199
57.4400,0.200
57.4800,0.200
57.5200,0.213
57.5600,0.206
57.6000,0.208
57.6400,0.186
57.6800,0.207
57.7200,0.198
57.7600,0.202
57.8000,0.193
57.8400,0.192
57.8800,0.192
57.9200,0.180
57.9600,0.199
58.0000,0.212
58.0400,0.202
58.0800,0.189
58.1200,0.189
58.1600,0.203
58.2000,0.188
58.2400,0.189
58.2800,0.204
58.3200,0.196
58.3600,0.193
58.4000,0.205
58.4400,0.198
58.4800,0.196
58.5200,0.199
58.5600,0.189
58.6000,0.199
58.6400,0.202
58.6800,0.187
58.7200,0.215
58.7600,0.197
58.8000,0.205
58.8400,0.201
58.8800,0.180
58.9200,0.198
58.9600,0.221
59.0000,0.185
59.0400,0.198
59.0800,0.176
59.1200,0.193
59.1600,0.196
59.2000,0.193
59.2400,0.190
59.2800,0.197
59.3200,0.198
59.3600,0.207
59.4000,0.185
59.4400,0.188
59.4800,0.194
59.5200,0.218
59.5600,0.205
59.6000,0.195
59.6400,0.198
59.6800,0.181
59.7200,0.195
59.7600,0.195
59.8000,0.200
59.8400,0.212
59.8800,0.210
59.9200,0.194
59.9600,0.186
60.0000,0.191
60.0400,0.209
60.0800,0.238
60.1200,0.207
60.1600,0.192
60.2000,0.199
60.2400,0.197
60.2800,0.205
60.3200,0.214
60.3600,0.185
60.4000,0.196
60.4400,0.177
60.4800,0.202
60.5200,0.181
60.5600,0.196
60.6000,0.213
60.6400,0.205
60.6800,0.199
60.7200,0.201
60.7600,0.183
60.8000,0.184
60.8400,0.199
60.8800,0.208
60.9200,0.195
60.9600,0.181
61.0000,0.183
61.0400,0.218
61.0800,0.185
61.1200,0.209
61.1600,0.192
61.2000,0.189
61.2400,0.194
61.2800,0.197
61.3200,0.176
61.3600,0.214
61.4000,0.194
61.4400,0.208
61.4800,0.213
61.5200,0.214
61.5600,0.193
61.6000,0.198
61.6400,0.216
61.6800,0.209
61.7200,0.199
61.7600,0.222
61.8000,0.197
61.8400,0.192
61.8800,0.184
61.9200,0.196
61.9600,0.203
62.0000,0.205
62.0400,0.218
62.0800,0.208
62.1200,0.213
62.1600,0.203
62.2000,0.207
62.2400,0.206
62.2800,0.208
62.3200,0.215
62.3600,0.215
