theta,intensity
5.0000,4.709
5.0400,4.734
5.0800,4.713
5.1200,4.544
5.1600,4.565
5.2000,4.555
5.2400,4.584
5.2800,4.512
5.3200,4.608
5.3600,4.559
5.4000,4.634
5.4400,4.610
5.4800,4.601
5.5200,4.462
5.5600,4.556
5.6000,4.640
5.6400,4.542
5.6800,4.494
5.7200,4.565
5.7600,4.511
5.8000,4.463
5.8400,4.520
5.8800,4.409
5.9200,4.310
5.9600,4.487
6.0000,4.381
6.0400,4.374
6.0800,4.351
6.1200,4.314
6.1600,4.209
6.2000,4.285
6.2400,4.090
6.2800,4.157
6.3200,4.179
6.3600,4.201
6.4000,4.137
6.4400,4.101
6.4800,4.152
6.5200,3.978
6.5600,4.054
6.6000,4.019
6.6400,4.009
6.6800,4.066
6.7200,4.011
6.7600,4.036
6.8000,4.030
6.8400,4.019
6.8800,4.065
6.9200,3.947
6.9600,4.005
7.0000,4.104
7.0400,3.998
7.0800,3.959
7.1200,3.963
7.1600,3.987
7.2000,4.002
7.2400,3.968
7.2800,3.910
7.3200,3.910
7.3600,3.894
7.4000,3.869
7.4400,3.910
7.4800,3.960
7.5200,3.895
7.5600,3.924
7.6000,3.956
7.6400,3.876
7.6800,3.909
7.7200,3.976
7.7600,3.950
7.8000,3.678
7.8400,3.849
7.8800,3.853
7.9200,3.844
7.9600,3.825
8.0000,3.821
8.0400,3.772
8.0800,3.863
8.1200,3.890
8.1600,3.903
8.2000,3.754
8.2400,3.849
8.2800,3.951
8.3200,3.913
8.3600,3.702
8.4000,3.703
8.4400,3.890
8.4800,3.704
8.5200,3.886
8.5600,3.828
8.6000,3.758
8.6400,3.867
8.6800,3.771
8.7200,3.847
8.7600,3.847
8.8000,3.761
8.8400,3.694
8.8800,3.678
8.9200,3.678
8.9600,3.742
9.0000,3.770
9.0400,3.710
9.0800,3.686
9.1200,3.825
9.1600,3.689
9.2000,3.707
9.2400,3.723
9.2800,3.682
9.3200,3.791
9.3600,3.831
9.4000,3.704
9.4400,3.677
9.4800,3.689
9.5200,3.711
9.5600,3.804
9.6000,3.714
9.6400,3.689
9.6800,3.756
9.7200,3.637
9.7600,3.713
9.8000,3.650
9.8400,3.674
9.8800,3.669
9.9200,3.614
9.9600,3.568
10.0000,3.662
10.0400,3.662
10.0800,3.592
10.1200,3.753
10.1600,3.686
10.2000,3.605
10.2400,3.659
10.2800,3.611
10.3200,3.739
10.3600,3.677
10.4000,3.604
10.4400,3.649
10.4800,3.593
10.5200,3.662
10.5600,3.522
10.6000,3.576
10.6400,3.630
10.6800,3.542
10.7200,3.594
10.7600,3.544
10.8000,3.650
10.8400,3.609
10.8800,3.507
10.9200,3.468
10.9600,3.499
11.0000,3.650
11.0400,3.541
11.0800,3.558
11.1200,3.544
11.1600,3.533
11.2000,3.463
11.2400,3.426
11.2800,3.523
11.3200,3.521
11.3600,3.496
11.4000,3.544
11.4400,3.508
11.4800,3.469
11.5200,3.494
11.5600,3.452
11.6000,3.502
11.6400,3.501
11.6800,3.420
11.7200,3.455
11.7600,3.335
11.8000,3.520
11.8400,3.474
11.8800,3.488
11.9200,3.469
11.9600,3.510
12.0000,3.373
12.0400,3.408
12.0800,3.480
12.1200,3.488
12.1600,3.404
12.2000,3.447
12.2400,3.367
12.2800,3.440
12.3200,3.452
12.3600,3.513
12.4000,3.284
12.4400,3.332
12.4800,3.371
12.5200,3.426
12.5600,3.402
12.6000,3.444
12.6400,3.385
12.6800,3.461
12.7200,3.439
12.7600,3.309
12.8000,3.291
12.8400,3.481
12.8800,3.300
12.9200,3.295
12.9600,3.346
13.0000,3.491
13.0400,3.312
13.0800,3.252
13.1200,3.331
13.1600,3.403
13.2000,3.272
13.2400,3.375
13.2800,3.358
13.3200,3.325
13.3600,3.319
13.4000,3.271
13.4400,3.450
13.4800,3.364
13.5200,3.286
13.5600,3.320
13.6000,3.387
13.6400,3.302
13.6800,3.334
13.7200,3.278
13.7600,3.320
13.8000,3.289
13.8400,3.314
13.8800,3.286
13.9200,3.288
13.9600,3.219
14.0000,3.303
14.0400,3.251
14.0800,3.261
14.1200,3.342
14.1600,3.263
14.2000,3.187
14.2400,3.206
14.2800,3.190
14.3200,3.256
14.3600,3.230
14.4000,3.338
14.4400,3.211
14.4800,3.161
14.5200,3.178
14.5600,3.273
14.6000,3.202
14.6400,3.219
14.6800,3.155
14.7200,3.245
14.7600,3.233
14.8000,3.224
14.8400,3.154
14.8800,3.205
14.9200,3.167
14.9600,3.177
15.0000,3.195
15.0400,3.213
15.0800,3.225
15.1200,3.254
15.1600,3.161
15.2000,3.209
15.2400,3.200
15.2800,3.264
15.3200,3.255
15.3600,3.191
15.4000,3.058
15.4400,3.158
15.4800,3.141
15.5200,3.175
15.5600,3.067
15.6000,3.136
15.6400,3.141
15.6800,3.107
15.7200,3.112
15.7600,3.127
15.8000,3.030
15.8400,3.098
15.8800,3.158
15.9200,3.089
15.9600,3.022
16.0000,3.037
16.0400,3.092
16.0800,3.159
16.1200,3.110
16.1600,3.010
16.2000,3.114
16.2400,3.087
16.2800,3.155
16.3200,3.043
16.3600,3.040
16.4000,3.161
16.4400,3.139
16.4800,3.079
16.5200,3.156
16.5600,3.150
16.6000,3.054
16.6400,3.045
16.6800,3.076
16.7200,2.993
16.7600,3.077
16.8000,2.950
16.8400,3.100
16.8800,3.083
16.9200,3.061
16.9600,3.050
17.0000,3.005
17.0400,3.012
17.0800,2.940
17.1200,2.932
17.1600,2.915
17.2000,3.015
17.2400,2.998
17.2800,2.971
17.3200,2.884
17.3600,2.947
17.4000,2.911
17.4400,2.920
17.4800,2.889
17.5200,2.939
17.5600,3.033
17.6000,2.906
17.6400,2.941
17.6800,3.024
17.7200,2.965
17.7600,3.058
17.8000,2.929
17.8400,2.850
17.8800,2.953
17.9200,2.851
17.9600,2.980
18.0000,2.927
18.0400,2.942
18.0800,2.898
18.1200,2.895
18.1600,2.872
18.2000,2.842
18.2400,2.874
18.2800,2.887
18.3200,2.800
18.3600,2.835
18.4000,2.804
18.4400,2.939
18.4800,2.824
18.5200,2.808
18.5600,2.862
18.6000,2.811
18.6400,2.835
18.6800,2.878
18.7200,2.928
18.7600,2.900
18.8000,2.813
18.8400,2.891
18.8800,2.800
18.9200,2.767
18.9600,2.851
19.0000,2.905
19.0400,2.924
19.0800,2.765
19.1200,2.848
19.1600,2.802
19.2000,2.791
19.2400,2.785
19.2800,2.682
19.3200,2.803
19.3600,2.749
19.4000,2.743
19.4400,2.862
19.4800,2.770
19.5200,2.795
19.5600,2.830
19.6000,2.805
19.6400,2.811
19.6800,2.795
19.7200,2.662
19.7600,2.717
19.8000,2.684
19.8400,2.749
19.8800,2.703
19.9200,2.721
19.9600,2.697
20.0000,2.670
20.0400,2.755
20.0800,2.647
20.1200,2.760
20.1600,2.661
20.2000,2.669
20.2400,2.610
20.2800,2.749
20.3200,2.698
20.3600,2.701
20.4000,2.655
20.4400,2.658
20.4800,2.601
20.5200,2.614
20.5600,2.662
20.6000,2.629
20.6400,2.748
20.6800,2.673
20.7200,2.639
20.7600,2.561
20.8000,2.677
20.8400,2.598
20.8800,2.725
20.9200,2.573
20.9600,2.750
21.0000,2.666
21.0400,2.778
21.0800,2.579
21.1200,2.675
21.1600,2.539
21.2000,2.597
21.2400,2.564
21.2800,2.603
21.3200,2.568
21.3600,2.568
21.4000,2.599
21.4400,2.578
21.4800,2.538
21.5200,2.571
21.5600,2.571
21.6000,2.578
21.6400,2.527
21.6800,2.599
21.7200,2.553
21.7600,2.538
21.8000,2.654
21.8400,2.568
21.8800,2.534
21.9200,2.556
21.9600,2.503
22.0000,2.576
22.0400,2.538
22.0800,2.555
22.1200,2.549
22.1600,2.595
22.2000,2.525
22.2400,2.518
22.2800,2.521
22.3200,2.406
22.3600,2.500
22.4000,2.493
22.4400,2.536
22.4800,2.492
22.5200,2.484
22.5600,2.458
22.6000,2.503
22.6400,2.511
22.6800,2.506
22.7200,2.383
22.7600,2.378
22.8000,2.410
22.8400,2.392
22.8800,2.492
22.9200,2.527
22.9600,2.435
23.0000,2.419
23.0400,2.467
23.0800,2.395
23.1200,2.493
23.1600,2.321
23.2000,2.376
23.2400,2.513
23.2800,2.372
23.3200,2.458
23.3600,2.433
23.4000,2.421
23.4400,2.450
23.4800,2.396
23.5200,2.387
23.5600,2.321
23.6000,2.350
23.6400,2.376
23.6800,2.260
23.7200,2.319
23.7600,2.419
23.8000,2.339
23.8400,2.368
23.8800,2.501
23.9200,2.393
23.9600,2.335
24.0000,2.411
24.0400,2.368
24.0800,2.403
24.1200,2.277
24.1600,2.339
24.2000,2.455
24.2400,2.356
24.2800,2.354
24.3200,2.284
24.3600,2.311
24.4000,2.333
24.4400,2.323
24.4800,2.314
24.5200,2.364
24.5600,2.265
24.6000,2.316
24.6400,2.330
24.6800,2.256
24.7200,2.324
24.7600,2.307
24.8000,2.259
24.8400,2.257
24.8800,2.284
24.9200,2.325
24.9600,2.294
25.0000,2.201
25.0400,2.333
25.0800,2.193
25.1200,2.179
25.1600,2.275
25.2000,2.248
25.2400,2.231
25.2800,2.248
25.3200,2.334
25.3600,2.285
25.4000,2.232
25.4400,2.298
25.4800,2.331
25.5200,2.249
25.5600,2.230
25.6000,2.268
25.6400,2.264
25.6800,2.195
25.7200,2.244
25.7600,2.227
25.8000,2.221
25.8400,2.262
25.8800,2.183
25.9200,2.235
25.9600,2.208
26.0000,2.257
26.0400,2.170
26.0800,2.181
26.1200,2.155
26.1600,2.237
26.2000,2.190
26.2400,2.166
26.2800,2.232
26.3200,2.203
26.3600,2.149
26.4000,2.175
26.4400,2.192
26.4800,2.113
26.5200,2.138
26.5600,2.106
26.6000,2.059
26.6400,2.144
26.6800,2.176
26.7200,2.183
26.7600,2.170
26.8000,2.219
26.8400,2.180
26.8800,2.045
26.9200,2.087
26.9600,2.203
27.0000,2.098
27.0400,2.148
27.0800,2.178
27.1200,2.113
27.1600,2.104
27.2000,2.140
27.2400,2.125
27.2800,2.166
27.3200,2.071
27.3600,2.146
27.4000,2.177
27.4400,2.161
27.4800,2.050
27.5200,2.005
27.5600,2.005
27.6000,2.054
27.6400,2.060
27.6800,2.073
27.7200,2.030
27.7600,2.095
27.8000,2.080
27.8400,2.107
27.8800,2.018
27.9200,2.058
27.9600,2.047
28.0000,2.044
28.0400,2.005
28.0800,1.950
28.1200,2.007
28.1600,1.992
28.2000,1.892
28.2400,2.024
28.2800,1.989
28.3200,2.083
28.3600,2.063
28.4000,1.997
28.4400,2.043
28.4800,2.033
28.5200,2.067
28.5600,2.031
28.6000,2.075
28.6400,2.019
28.6800,1.983
28.7200,2.006
28.7600,1.917
28.8000,1.953
28.8400,2.024
28.8800,2.006
28.9200,2.007
28.9600,2.006
29.0000,1.943
29.0400,1.970
29.0800,1.924
29.1200,1.891
29.1600,1.894
29.2000,2.020
29.2400,1.948
29.2800,1.894
29.3200,1.992
29.3600,1.873
29.4000,1.886
29.4400,1.905
29.4800,1.988
29.5200,1.862
29.5600,1.925
29.6000,1.848
29.6400,1.880
29.6800,1.942
29.7200,1.882
29.7600,1.961
29.8000,1.919
29.8400,1.886
29.8800,1.883
29.9200,1.869
29.9600,1.942
30.0000,1.869
30.0400,1.828
30.0800,1.964
30.1200,1.882
30.1600,1.777
30.2000,1.826
30.2400,1.855
30.2800,1.814
30.3200,1.912
30.3600,1.869
30.4000,1.879
30.4400,1.773
30.4800,1.858
30.5200,1.910
30.5600,1.847
30.6000,1.845
30.6400,1.882
30.6800,1.777
30.7200,1.879
30.7600,1.897
30.8000,1.824
30.8400,1.843
30.8800,1.933
30.9200,1.821
30.9600,1.835
31.0000,1.855
31.0400,1.843
31.0800,1.748
31.1200,1.818
31.1600,1.790
31.2000,1.777
31.2400,1.809
31.2800,1.834
31.3200,1.745
31.3600,1.901
31.4000,1.860
31.4400,1.765
31.4800,1.801
31.5200,1.739
31.5600,1.837
31.6000,1.845
31.6400,1.850
31.6800,1.866
31.7200,1.847
31.7600,1.929
31.8000,1.874
31.8400,1.847
31.8800,1.783
31.9200,1.793
31.9600,1.832
32.0000,1.891
32.0400,1.855
32.0800,1.739
32.1200,1.830
32.1600,1.805
32.2000,1.785
32.2400,1.843
32.2800,1.729
32.3200,1.692
32.3600,1.772
32.4000,1.794
32.4400,1.773
32.4800,1.733
32.5200,1.764
32.5600,1.745
32.6000,1.803
32.6400,1.745
32.6800,1.777
32.7200,1.736
32.7600,1.677
32.8000,1.663
32.8400,1.784
32.8800,1.666
32.9200,1.709
32.9600,1.720
33.0000,1.671
33.0400,1.773
33.0800,1.679
33.1200,1.732
33.1600,1.701
33.2000,1.660
33.2400,1.605
33.2800,1.731
33.3200,1.665
33.3600,1.692
33.4000,1.653
33.4400,1.639
33.4800,1.685
33.5200,1.708
33.5600,1.637
33.6000,1.662
33.6400,1.651
33.6800,1.692
33.7200,1.700
33.7600,1.706
33.8000,1.662
33.8400,1.696
33.8800,1.713
33.9200,1.682
33.9600,1.644
34.0000,1.643
34.0400,1.627
34.0800,1.610
34.1200,1.707
34.1600,1.725
34.2000,1.699
34.2400,1.736
34.2800,1.672
34.3200,1.606
34.3600,1.691
34.4000,1.654
34.4400,1.752
34.4800,1.715
34.5200,1.667
34.5600,1.655
34.6000,1.697
34.6400,1.630
34.6800,1.653
34.7200,1.579
34.7600,1.605
34.8000,1.685
34.8400,1.635
34.8800,1.675
34.9200,1.743
34.9600,1.652
35.0000,1.555
35.0400,1.655
35.0800,1.678
35.1200,1.638
35.1600,1.660
35.2000,1.645
35.2400,1.692
35.2800,1.637
35.3200,1.596
35.3600,1.615
35.4000,1.644
35.4400,1.608
35.4800,1.655
35.5200,1.616
35.5600,1.679
35.6000,1.664
35.6400,1.685
35.6800,1.690
35.7200,1.700
35.7600,1.682
35.8000,1.661
35.8400,1.733
35.8800,1.804
35.9200,1.811
35.9600,1.812
36.0000,1.723
36.0400,1.905
36.0800,1.847
36.1200,1.848
36.1600,1.846
36.2000,1.898
36.2400,1.827
36.2800,1.908
36.3200,1.887
36.3600,1.918
36.4000,1.804
36.4400,1.721
36.4800,1.772
36.5200,1.897
36.5600,1.829
36.6000,1.748
36.6400,1.765
36.6800,1.826
36.7200,1.765
36.7600,1.786
36.8000,1.762
36.8400,1.854
36.8800,1.793
36.9200,1.791
36.9600,1.830
37.0000,1.842
37.0400,1.896
37.0800,1.900
37.1200,1.931
37.1600,1.965
37.2000,2.044
37.2400,1.935
37.2800,2.051
37.3200,2.024
37.3600,2.043
37.4000,2.160
37.4400,2.206
37.4800,2.200
37.5200,2.377
37.5600,2.269
37.6000,2.459
37.6400,2.515
37.6800,2.752
37.7200,2.713
37.7600,2.940
37.8000,3.119
37.8400,3.375
37.8800,3.660
37.9200,4.072
37.9600,4.368
38.0000,4.927
38.0400,5.543
38.0800,6.337
38.1200,7.069
38.1600,8.223
38.2000,9.377
38.2400,9.976
38.2800,10.568
38.3200,10.235
38.3600,9.925
38.4000,8.798
38.4400,7.850
38.4800,6.870
38.5200,6.110
38.5600,5.381
38.6000,4.730
38.6400,4.230
38.6800,3.900
38.7200,3.525
38.7600,3.377
38.8000,3.100
38.8400,2.925
38.8800,2.758
38.9200,2.610
38.9600,2.563
39.0000,2.418
39.0400,2.469
39.0800,2.366
39.1200,2.299
39.1600,2.127
39.2000,2.083
39.2400,2.117
39.2800,1.997
39.3200,1.964
39.3600,1.904
39.4000,1.904
39.4400,1.824
39.4800,1.787
39.5200,1.870
39.5600,1.793
39.6000,1.765
39.6400,1.664
39.6800,1.700
39.7200,1.807
39.7600,1.735
39.8000,1.696
39.8400,1.620
39.8800,1.668
39.9200,1.732
39.9600,1.689
40.0000,1.613
40.0400,1.668
40.0800,1.605
40.1200,1.672
40.1600,1.626
40.2000,1.660
40.2400,1.699
40.2800,1.660
40.3200,1.683
40.3600,1.632
40.4000,1.635
40.4400,1.575
40.4800,1.663
40.5200,1.609
40.5600,1.601
40.6000,1.594
40.6400,1.562
40.6800,1.707
40.7200,1.678
40.7600,1.618
40.8000,1.694
40.8400,1.687
40.8800,1.706
40.9200,1.607
40.9600,1.605
41.0000,1.617
41.0400,1.637
41.0800,1.602
41.1200,1.613
41.1600,1.638
41.2000,1.577
41.2400,1.584
41.2800,1.510
41.3200,1.486
41.3600,1.514
41.4000,1.582
41.4400,1.466
41.4800,1.471
41.5200,1.421
41.5600,1.402
41.6000,1.487
41.6400,1.466
41.6800,1.428
41.7200,1.410
41.7600,1.427
41.8000,1.424
41.8400,1.385
41.8800,1.411
41.9200,1.381
41.9600,1.439
42.0000,1.388
42.0400,1.360
42.0800,1.441
42.1200,1.398
42.1600,1.410
42.2000,1.385
42.2400,1.382
42.2800,1.303
42.3200,1.420
42.3600,1.429
42.4000,1.424
42.4400,1.365
42.4800,1.372
42.5200,1.375
42.5600,1.379
42.6000,1.308
42.6400,1.375
42.6800,1.420
42.7200,1.290
42.7600,1.336
42.8000,1.287
42.8400,1.404
42.8800,1.376
42.9200,1.360
42.9600,1.400
43.0000,1.398
43.0400,1.395
43.0800,1.366
43.1200,1.453
43.1600,1.462
43.2000,1.482
43.2400,1.469
43.2800,1.385
43.3200,1.472
43.3600,1.458
43.4000,1.433
43.4400,1.510
43.4800,1.491
43.5200,1.475
43.5600,1.504
43.6000,1.565
43.6400,1.604
43.6800,1.689
43.7200,1.591
43.7600,1.620
43.8000,1.714
43.8400,1.774
43.8800,1.882
43.9200,1.768
43.9600,1.814
44.0000,1.915
44.0400,1.942
44.0800,2.091
44.1200,2.152
44.1600,2.154
44.2000,2.308
44.2400,2.421
44.2800,2.440
44.3200,2.528
44.3600,2.637
44.4000,2.737
44.4400,2.954
44.4800,2.966
44.5200,2.875
44.5600,3.068
44.6000,2.991
44.6400,2.770
44.6800,2.732
44.7200,2.709
44.7600,2.472
44.8000,2.394
44.8400,2.196
44.8800,2.094
44.9200,2.016
44.9600,1.931
45.0000,1.839
45.0400,1.751
45.0800,1.673
45.1200,1.556
45.1600,1.537
45.2000,1.421
45.2400,1.494
45.2800,1.434
45.3200,1.351
45.3600,1.438
45.4000,1.318
45.4400,1.310
45.4800,1.338
45.5200,1.283
45.5600,1.269
45.6000,1.213
45.6400,1.177
45.6800,1.230
45.7200,1.184
45.7600,1.164
45.8000,1.137
45.8400,1.111
45.8800,1.076
45.9200,1.145
45.9600,1.152
46.0000,1.093
46.0400,1.151
46.0800,1.061
46.1200,1.107
46.1600,1.111
46.2000,1.153
46.2400,1.028
46.2800,1.068
46.3200,1.101
46.3600,1.023
46.4000,1.041
46.4400,1.015
46.4800,1.044
46.5200,0.913
46.5600,1.034
46.6000,0.994
46.6400,1.018
46.6800,1.018
46.7200,1.042
46.7600,0.967
46.8000,1.001
46.8400,0.981
46.8800,0.983
46.9200,0.956
46.9600,0.979
47.0000,1.008
47.0400,1.013
47.0800,1.013
47.1200,1.009
47.1600,0.960
47.2000,0.986
47.2400,0.946
47.2800,0.941
47.3200,0.953
47.3600,0.960
47.4000,0.986
47.4400,0.863
47.4800,0.955
47.5200,1.004
47.5600,0.963
47.6000,1.010
47.6400,0.961
47.6800,0.905
47.7200,0.981
47.7600,0.928
47.8000,0.924
47.8400,0.957
47.8800,0.957
47.9200,0.939
47.9600,0.886
48.0000,0.907
48.0400,0.900
48.0800,0.936
48.1200,0.943
48.1600,0.956
48.2000,0.924
48.2400,0.910
48.2800,0.927
48.3200,0.914
48.3600,0.945
48.4000,0.847
48.4400,0.843
48.4800,0.904
48.5200,0.884
48.5600,0.891
48.6000,0.906
48.6400,0.931
48.6800,0.944
48.7200,0.852
48.7600,0.868
48.8000,0.834
48.8400,0.851
48.8800,0.875
48.9200,0.933
48.9600,0.888
49.0000,0.906
49.0400,0.895
49.0800,0.869
49.1200,0.867
49.1600,0.811
49.2000,0.879
49.2400,0.891
49.2800,0.916
49.3200,0.844
49.3600,0.865
49.4000,0.873
49.4400,0.823
49.4800,0.857
49.5200,0.810
49.5600,0.856
49.6000,0.800
49.6400,0.819
49.6800,0.809
49.7200,0.900
49.7600,0.872
49.8000,0.797
49.8400,0.816
49.8800,0.858
49.9200,0.802
49.9600,0.841
50.0000,0.788
50.0400,0.803
50.0800,0.812
50.1200,0.807
50.1600,0.822
50.2000,0.801
50.2400,0.876
50.2800,0.804
50.3200,0.824
50.3600,0.852
50.4000,0.760
50.4400,0.870
50.4800,0.814
50.5200,0.841
50.5600,0.775
50.6000,0.793
50.6400,0.844
50.6800,0.819
50.7200,0.788
50.7600,0.825
50.8000,0.792
50.8400,0.775
50.8800,0.827
50.9200,0.788
50.9600,0.799
51.0000,0.827
51.0400,0.809
51.0800,0.799
51.1200,0.827
51.1600,0.817
51.2000,0.778
51.2400,0.784
51.2800,0.745
51.3200,0.740
51.3600,0.781
51.4000,0.770
51.4400,0.807
51.4800,0.783
51.5200,0.770
51.5600,0.784
51.6000,0.700
51.6400,0.769
51.6800,0.782
51.7200,0.789
51.7600,0.762
51.8000,0.753
51.8400,0.739
51.8800,0.706
51.9200,0.793
51.9600,0.799
52.0000,0.775
52.0400,0.666
52.0800,0.751
52.1200,0.784
52.1600,0.769
52.2000,0.771
52.2400,0.805
52.2800,0.768
52.3200,0.743
52.3600,0.789
52.4000,0.744
52.4400,0.750
52.4800,0.799
52.5200,0.786
52.5600,0.744
52.6000,0.712
52.6400,0.741
52.6800,0.771
52.7200,0.751
52.7600,0.794
52.8000,0.774
52.8400,0.746
52.8800,0.755
52.9200,0.733
52.9600,0.738
53.0000,0.688
53.0400,0.781
53.0800,0.785
53.1200,0.729
53.1600,0.733
53.2000,0.693
53.2400,0.752
53.2800,0.752
53.3200,0.712
53.3600,0.706
53.4000,0.648
53.4400,0.678
53.4800,0.734
53.5200,0.701
53.5600,0.716
53.6000,0.733
53.6400,0.764
53.6800,0.723
53.7200,0.755
53.7600,0.696
53.8000,0.689
53.8400,0.703
53.8800,0.744
53.9200,0.680
53.9600,0.742
54.0000,0.726
54.0400,0.797
54.0800,0.741
54.1200,0.718
54.1600,0.757
54.2000,0.679
54.2400,0.681
54.2800,0.745
54.3200,0.678
54.3600,0.683
54.4000,0.709
54.4400,0.763
54.4800,0.698
54.5200,0.676
54.5600,0.672
54.6000,0.726
54.6400,0.675
54.6800,0.707
54.7200,0.733
54.7600,0.723
54.8000,0.714
54.8400,0.658
54.8800,0.685
54.9200,0.725
54.9600,0.686
55.0000,0.701
55.0400,0.696
55.0800,0.702
55.1200,0.726
55.1600,0.690
55.2000,0.663
55.2400,0.696
55.2800,0.686
55.3200,0.678
55.3600,0.608
55.4000,0.699
55.4400,0.740
55.4800,0.658
55.5200,0.710
55.5600,0.667
55.6000,0.712
55.6400,0.747
55.6800,0.637
55.7200,0.685
55.7600,0.704
55.8000,0.661
55.8400,0.688
55.8800,0.713
55.9200,0.719
55.9600,0.661
56.0000,0.652
56.0400,0.735
56.0800,0.719
56.1200,0.694
56.1600,0.670
56.2000,0.697
56.2400,0.649
56.2800,0.653
56.3200,0.698
56.3600,0.715
56.4000,0.738
56.4400,0.742
56.4800,0.711
56.5200,0.681
56.5600,0.716
56.6000,0.679
56.6400,0.652
56.6800,0.708
56.7200,0.700
56.7600,0.720
56.8000,0.689
56.8400,0.692
56.8800,0.681
56.9200,0.684
56.9600,0.655
57.0000,0.660
57.0400,0.700
57.0800,0.721
57.1200,0.706
57.1600,0.656
57.2000,0.643
57.2400,0.628
57.2800,0.622
57.3200,0.663
57.3600,0.620
57.4000,0.634
57.4400,0.677
57.4800,0.641
57.5200,0.683
57.5600,0.653
57.6000,0.635
57.6400,0.661
57.6800,0.685
57.7200,0.665
57.7600,0.683
57.8000,0.591
57.8400,0.660
57.8800,0.632
57.9200,0.610
57.9600,0.668
58.0000,0.673
58.0400,0.600
58.0800,0.631
58.1200,0.599
58.1600,0.644
58.2000,0.663
58.2400,0.560
58.2800,0.688
58.3200,0.624
58.3600,0.667
58.4000,0.633
58.4400,0.655
58.4800,0.668
58.5200,0.620
58.5600,0.555
58.6000,0.641
58.6400,0.631
58.6800,0.644
58.7200,0.594
58.7600,0.627
58.8000,0.638
58.8400,0.649
58.8800,0.660
58.9200,0.615
58.9600,0.664
59.0000,0.615
59.0400,0.675
59.0800,0.600
59.1200,0.626
59.1600,0.638
59.2000,0.613
59.2400,0.623
59.2800,0.597
59.3200,0.605
59.3600,0.638
59.4000,0.619
59.4400,0.568
59.4800,0.588
59.5200,0.640
59.5600,0.646
59.6000,0.612
59.6400,0.625
59.6800,0.584
59.7200,0.614
59.7600,0.550
59.8000,0.626
59.8400,0.596
59.8800,0.593
59.9200,0.566
59.9600,0.608
60.0000,0.607
60.0400,0.590
60.0800,0.565
60.1200,0.601
60.1600,0.595
60.2000,0.585
60.2400,0.574
60.2800,0.564
60.3200,0.589
60.3600,0.587
60.4000,0.553
60.4400,0.571
60.4800,0.587
60.5200,0.587
60.5600,0.587
60.6000,0.630
60.6400,0.592
60.6800,0.617
60.7200,0.541
60.7600,0.604
60.8000,0.598
60.8400,0.637
60.8800,0.623
60.9200,0.597
60.9600,0.602
61.0000,0.553
61.0400,0.584
61.0800,0.601
61.1200,0.543
61.1600,0.576
61.2000,0.584
61.2400,0.587
61.2800,0.584
61.3200,0.537
61.3600,0.585
61.4000,0.539
61.4400,0.592
61.4800,0.618
61.5200,0.584
61.5600,0.616
61.6000,0.634
61.6400,0.603
61.6800,0.635
61.7200,0.703
61.7600,0.641
61.8000,0.616
61.8400,0.631
61.8800,0.664
61.9200,0.593
61.9600,0.565
62.0000,0.576
62.0400,0.588
62.0800,0.623
62.1200,0.580
62.1600,0.598
62.2000,0.632
62.2400,0.634
62.2800,0.593
62.3200,0.576
62.3600,0.610
62.4000,0.569
