theta,intensity
5.0000,5.263
5.0400,5.286
5.0800,5.119
5.1200,5.227
5.1600,5.237
5.2000,5.177
5.2400,5.077
5.2800,5.059
5.3200,5.007
5.3600,5.020
5.4000,4.878
5.4400,4.867
5.4800,4.753
5.5200,4.767
5.5600,4.697
5.6000,4.732
5.6400,4.480
5.6800,4.540
5.7200,4.497
5.7600,4.453
5.8000,4.472
5.8400,4.342
5.8800,4.306
5.9200,4.364
5.9600,4.208
6.0000,4.283
6.0400,4.197
6.0800,4.222
6.1200,4.185
6.1600,4.143
6.2000,4.255
6.2400,4.259
6.2800,4.250
6.3200,4.215
6.3600,4.107
6.4000,4.020
6.4400,3.974
6.4800,4.143
6.5200,4.140
6.5600,4.100
6.6000,4.171
6.6400,4.151
6.6800,4.107
6.7200,4.094
6.7600,4.059
6.8000,4.197
6.8400,4.008
6.8800,4.085
6.9200,4.070
6.9600,4.099
7.0000,4.140
7.0400,3.990
7.0800,4.183
7.1200,4.014
7.1600,3.998
7.2000,4.202
7.2400,4.066
7.2800,3.973
7.3200,4.013
7.3600,4.007
7.4000,3.933
7.4400,3.999
7.4800,3.921
7.5200,3.905
7.5600,3.876
7.6000,3.901
7.6400,3.978
7.6800,3.937
7.7200,3.979
7.7600,3.934
7.8000,3.996
7.8400,3.940
7.8800,3.919
7.9200,4.022
7.9600,3.916
8.0000,3.906
8.0400,3.869
8.0800,3.795
8.1200,3.815
8.1600,3.885
8.2000,3.980
8.2400,3.913
8.2800,3.931
8.3200,3.820
8.3600,3.852
8.4000,3.845
8.4400,3.745
8.4800,3.916
8.5200,3.963
8.5600,3.845
8.6000,3.866
8.6400,3.887
8.6800,3.859
8.7200,3.734
8.7600,3.781
8.8000,3.739
8.8400,3.771
8.8800,3.781
8.9200,3.840
8.9600,3.815
9.0000,3.726
9.0400,3.647
9.0800,3.799
9.1200,3.769
9.1600,3.932
9.2000,3.730
9.2400,3.753
9.2800,3.855
9.3200,3.785
9.3600,3.741
9.4000,3.632
9.4400,3.660
9.4800,3.731
9.5200,3.856
9.5600,3.815
9.6000,3.768
9.6400,3.830
9.6800,3.772
9.7200,3.857
9.7600,3.629
9.8000,3.677
9.8400,3.759
9.8800,3.681
9.9200,3.635
9.9600,3.667
10.0000,3.679
10.0400,3.604
10.0800,3.571
10.1200,3.593
10.1600,3.682
10.2000,3.703
10.2400,3.784
10.2800,3.518
10.3200,3.649
10.3600,3.645
10.4000,3.588
10.4400,3.758
10.4800,3.583
10.5200,3.659
10.5600,3.706
10.6000,3.582
10.6400,3.652
10.6800,3.570
10.7200,3.545
10.7600,3.552
10.8000,3.506
10.8400,3.592
10.8800,3.557
10.9200,3.459
10.9600,3.486
11.0000,3.721
11.0400,3.538
11.0800,3.574
11.1200,3.535
11.1600,3.487
11.2000,3.538
11.2400,3.599
11.2800,3.611
11.3200,3.539
11.3600,3.635
11.4000,3.615
11.4400,3.437
11.4800,3.506
11.5200,3.551
11.5600,3.505
11.6000,3.573
11.6400,3.596
11.6800,3.605
11.7200,3.495
11.7600,3.419
11.8000,3.495
11.8400,3.407
11.8800,3.498
11.9200,3.519
11.9600,3.433
12.0000,3.541
12.0400,3.383
12.0800,3.401
12.1200,3.522
12.1600,3.387
12.2000,3.447
12.2400,3.423
12.2800,3.404
12.3200,3.416
12.3600,3.439
12.4000,3.333
12.4400,3.294
12.4800,3.378
12.5200,3.523
12.5600,3.444
12.6000,3.417
12.6400,3.449
12.6800,3.447
12.7200,3.372
12.7600,3.338
12.8000,3.441
12.8400,3.433
12.8800,3.363
12.9200,3.361
12.9600,3.397
13.0000,3.388
13.0400,3.463
13.0800,3.407
13.1200,3.403
13.1600,3.380
13.2000,3.482
13.2400,3.459
13.2800,3.328
13.3200,3.287
13.3600,3.307
13.4000,3.282
13.4400,3.382
13.4800,3.411
13.5200,3.295
13.5600,3.318
13.6000,3.320
13.6400,3.306
13.6800,3.309
13.7200,3.260
13.7600,3.222
13.8000,3.240
13.8400,3.220
13.8800,3.355
13.9200,3.236
13.9600,3.322
14.0000,3.246
14.0400,3.190
14.0800,3.311
14.1200,3.298
14.1600,3.279
14.2000,3.295
14.2400,3.225
14.2800,3.166
14.3200,3.175
14.3600,3.249
14.4000,3.243
14.4400,3.214
14.4800,3.232
14.5200,3.254
14.5600,3.257
14.6000,3.221
14.6400,3.286
14.6800,3.203
14.7200,3.188
14.7600,3.225
14.8000,3.202
14.8400,3.250
14.8800,3.218
14.9200,3.172
14.9600,3.147
15.0000,3.157
15.0400,3.145
15.0800,3.180
15.1200,3.209
15.1600,3.145
15.2000,3.143
15.2400,3.065
15.2800,3.149
15.3200,3.136
15.3600,3.243
15.4000,3.078
15.4400,3.267
15.4800,3.218
15.5200,3.185
15.5600,3.054
15.6000,3.175
15.6400,3.151
15.6800,3.065
15.7200,3.174
15.7600,3.192
15.8000,3.118
15.8400,3.101
15.8800,3.185
15.9200,3.086
15.9600,3.103
16.0000,3.148
16.0400,3.097
16.0800,3.130
16.1200,3.001
16.1600,2.987
16.2000,3.149
16.2400,3.209
16.2800,2.965
16.3200,3.016
16.3600,3.052
16.4000,2.966
16.4400,3.037
16.4800,3.006
16.5200,3.074
16.5600,2.989
16.6000,3.049
16.6400,3.077
16.6800,2.989
16.7200,2.944
16.7600,2.970
16.8000,3.048
16.8400,2.949
16.8800,3.093
16.9200,3.002
16.9600,2.949
17.0000,3.079
17.0400,3.005
17.0800,3.090
17.1200,2.973
17.1600,2.965
17.2000,2.980
17.2400,3.038
17.2800,2.868
17.3200,2.930
17.3600,2.945
17.4000,3.049
17.4400,3.029
17.4800,3.024
17.5200,2.940
17.5600,2.979
17.6000,2.945
17.6400,2.941
17.6800,2.862
17.7200,2.995
17.7600,2.967
17.8000,2.901
17.8400,2.981
17.8800,2.844
17.9200,2.925
17.9600,2.851
18.0000,2.888
18.0400,2.945
18.0800,2.880
18.1200,2.916
18.1600,2.930
18.2000,2.870
18.2400,2.915
18.2800,2.974
18.3200,2.816
18.3600,2.864
18.4000,2.884
18.4400,2.889
18.4800,2.920
18.5200,2.856
18.5600,2.824
18.6000,2.861
18.6400,2.924
18.6800,2.885
18.7200,2.870
18.7600,2.832
18.8000,2.782
18.8400,2.845
18.8800,2.952
18.9200,2.811
18.9600,2.800
19.0000,2.696
19.0400,2.810
19.0800,2.782
19.1200,2.856
19.1600,2.780
19.2000,2.804
19.2400,2.754
19.2800,2.809
19.3200,2.823
19.3600,2.876
19.4000,2.839
19.4400,2.821
19.4800,2.801
19.5200,2.742
19.5600,2.802
19.6000,2.731
19.6400,2.673
19.6800,2.704
19.7200,2.731
19.7600,2.787
19.8000,2.753
19.8400,2.722
19.8800,2.794
19.9200,2.726
19.9600,2.751
20.0000,2.733
20.0400,2.635
20.0800,2.677
20.1200,2.690
20.1600,2.676
20.2000,2.803
20.2400,2.776
20.2800,2.703
20.3200,2.754
20.3600,2.715
20.4000,2.682
20.4400,2.716
20.4800,2.697
20.5200,2.760
20.5600,2.669
20.6000,2.723
20.6400,2.649
20.6800,2.634
20.7200,2.750
20.7600,2.683
20.8000,2.687
20.8400,2.680
20.8800,2.721
20.9200,2.614
20.9600,2.639
21.0000,2.630
21.0400,2.629
21.0800,2.679
21.1200,2.587
21.1600,2.733
21.2000,2.608
21.2400,2.613
21.2800,2.612
21.3200,2.669
21.3600,2.565
21.4000,2.554
21.4400,2.625
21.4800,2.627
21.5200,2.567
21.5600,2.585
21.6000,2.489
21.6400,2.554
21.6800,2.652
21.7200,2.653
21.7600,2.642
21.8000,2.609
21.8400,2.669
21.8800,2.568
21.9200,2.547
21.9600,2.550
22.0000,2.517
22.0400,2.541
22.0800,2.491
22.1200,2.636
22.1600,2.676
22.2000,2.609
22.2400,2.612
22.2800,2.578
22.3200,2.560
22.3600,2.545
22.4000,2.530
22.4400,2.569
22.4800,2.546
22.5200,2.647
22.5600,2.610
22.6000,2.507
22.6400,2.501
22.6800,2.542
22.7200,2.546
22.7600,2.620
22.8000,2.565
22.8400,2.519
22.8800,2.613
22.9200,2.662
22.9600,2.585
23.0000,2.597
23.0400,2.513
23.0800,2.579
23.1200,2.539
23.1600,2.491
23.2000,2.560
23.2400,2.493
23.2800,2.458
23.3200,2.495
23.3600,2.608
23.4000,2.524
23.4400,2.561
23.4800,2.648
23.5200,2.615
23.5600,2.573
23.6000,2.529
23.6400,2.594
23.6800,2.467
23.7200,2.479
23.7600,2.447
23.8000,2.408
23.8400,2.378
23.8800,2.385
23.9200,2.498
23.9600,2.484
24.0000,2.432
24.0400,2.424
24.0800,2.423
24.1200,2.414
24.1600,2.331
24.2000,2.377
24.2400,2.352
24.2800,2.375
24.3200,2.389
24.3600,2.417
24.4000,2.363
24.4400,2.345
24.4800,2.370
24.5200,2.387
24.5600,2.357
24.6000,2.380
24.6400,2.307
24.6800,2.356
24.7200,2.396
24.7600,2.217
24.8000,2.357
24.8400,2.327
24.8800,2.377
24.9200,2.360
24.9600,2.338
25.0000,2.309
25.0400,2.288
25.0800,2.367
25.1200,2.259
25.1600,2.256
25.2000,2.265
25.2400,2.296
25.2800,2.305
25.3200,2.281
25.3600,2.267
25.4000,2.253
25.4400,2.326
25.4800,2.364
25.5200,2.205
25.5600,2.278
25.6000,2.354
25.6400,2.359
25.6800,2.277
25.7200,2.307
25.7600,2.252
25.8000,2.248
25.8400,2.190
25.8800,2.282
25.9200,2.211
25.9600,2.282
26.0000,2.273
26.0400,2.227
26.0800,2.265
26.1200,2.221
26.1600,2.254
26.2000,2.273
26.2400,2.143
26.2800,2.149
26.3200,2.275
26.3600,2.193
26.4000,2.180
26.4400,2.259
26.4800,2.164
26.5200,2.241
26.5600,2.220
26.6000,2.250
26.6400,2.196
26.6800,2.193
26.7200,2.275
26.7600,2.168
26.8000,2.208
26.8400,2.225
26.8800,2.221
26.9200,2.251
26.9600,2.183
27.0000,2.170
27.0400,2.214
27.0800,2.267
27.1200,2.232
27.1600,2.231
27.2000,2.166
27.2400,2.218
27.2800,2.210
27.3200,2.350
27.3600,2.228
27.4000,2.173
27.4400,2.325
27.4800,2.314
27.5200,2.282
27.5600,2.379
27.6000,2.327
27.6400,2.339
27.6800,2.397
27.7200,2.478
27.7600,2.428
27.8000,2.504
27.8400,2.518
27.8800,2.600
27.9200,2.803
27.9600,2.946
28.0000,3.133
28.0400,3.285
28.0800,3.569
28.1200,3.861
28.1600,4.203
28.2000,4.542
28.2400,4.880
28.2800,4.850
28.3200,5.019
28.3600,4.773
28.4000,4.707
28.4400,4.447
28.4800,4.185
28.5200,3.689
28.5600,3.478
28.6000,3.125
28.6400,2.862
28.6800,2.722
28.7200,2.508
28.7600,2.531
28.8000,2.430
28.8400,2.411
28.8800,2.238
28.9200,2.213
28.9600,2.238
29.0000,2.224
29.0400,2.136
29.0800,2.185
29.1200,2.105
29.1600,2.088
29.2000,2.084
29.2400,2.052
29.2800,2.080
29.3200,2.074
29.3600,2.005
29.4000,2.027
29.4400,2.046
29.4800,2.002
29.5200,2.010
29.5600,1.986
29.6000,2.018
29.6400,1.998
29.6800,1.947
29.7200,1.945
29.7600,2.005
29.8000,1.955
29.8400,2.002
29.8800,2.017
29.9200,1.911
29.9600,1.964
30.0000,1.972
30.0400,1.981
30.0800,1.936
30.1200,1.920
30.1600,1.916
30.2000,2.015
30.2400,1.975
30.2800,1.927
30.3200,1.880
30.3600,1.937
30.4000,1.950
30.4400,1.956
30.4800,1.869
30.5200,1.918
30.5600,1.919
30.6000,1.893
30.6400,1.965
30.6800,1.901
30.7200,1.887
30.7600,1.902
30.8000,1.940
30.8400,1.919
30.8800,1.969
30.9200,1.860
30.9600,1.942
31.0000,1.876
31.0400,1.895
31.0800,1.850
31.1200,1.924
31.1600,1.910
31.2000,1.916
31.2400,1.968
31.2800,1.901
31.3200,1.930
31.3600,2.022
31.4000,1.949
31.4400,1.944
31.4800,1.966
31.5200,2.009
31.5600,1.996
31.6000,2.108
31.6400,2.012
31.6800,2.111
31.7200,2.019
31.7600,2.098
31.8000,2.115
31.8400,2.023
31.8800,2.143
31.9200,2.165
31.9600,2.094
32.0000,2.028
32.0400,2.007
32.0800,2.045
32.1200,1.987
32.1600,1.974
32.2000,1.984
32.2400,1.915
32.2800,1.917
32.3200,1.991
32.3600,1.876
32.4000,1.810
32.4400,1.924
32.4800,1.860
32.5200,1.872
32.5600,1.873
32.6000,1.905
32.6400,1.890
32.6800,1.856
32.7200,1.849
32.7600,1.805
32.8000,1.802
32.8400,1.839
32.8800,1.789
32.9200,1.760
32.9600,1.849
33.0000,2.166
33.0400,2.124
33.0800,1.831
33.1200,1.717
33.1600,1.838
33.2000,1.738
33.2400,1.806
33.2800,1.804
33.3200,1.780
33.3600,1.790
33.4000,1.809
33.4400,1.789
33.4800,1.798
33.5200,1.824
33.5600,1.716
33.6000,1.758
33.6400,1.753
33.6800,1.772
33.7200,1.849
33.7600,1.757
33.8000,1.759
33.8400,1.764
33.8800,1.793
33.9200,1.768
33.9600,1.794
34.0000,1.856
34.0400,1.882
34.0800,1.769
34.1200,1.887
34.1600,1.837
34.2000,1.812
34.2400,1.818
34.2800,1.845
34.3200,1.867
34.3600,1.898
34.4000,1.869
34.4400,1.784
34.4800,1.845
34.5200,1.920
34.5600,1.833
34.6000,1.854
34.6400,1.883
34.6800,1.791
34.7200,1.781
34.7600,1.764
34.8000,1.766
34.8400,1.812
34.8800,1.719
34.9200,1.805
34.9600,1.698
35.0000,1.755
35.0400,1.813
35.0800,1.794
35.1200,1.813
35.1600,1.751
35.2000,1.693
35.2400,1.772
35.2800,1.775
35.3200,1.719
35.3600,1.763
35.4000,1.734
35.4400,1.810
35.4800,1.807
35.5200,1.758
35.5600,1.787
35.6000,1.763
35.6400,1.726
35.6800,1.720
35.7200,1.777
35.7600,1.815
35.8000,1.823
35.8400,1.802
35.8800,1.766
35.9200,1.820
35.9600,1.903
36.0000,1.883
36.0400,1.936
36.0800,1.922
36.1200,1.862
36.1600,1.943
36.2000,1.901
36.2400,1.943
36.2800,1.984
36.3200,1.978
36.3600,1.952
36.4000,1.932
36.4400,1.932
36.4800,1.943
36.5200,1.900
36.5600,1.832
36.6000,1.903
36.6400,1.939
36.6800,1.814
36.7200,1.734
36.7600,1.792
36.8000,1.783
36.8400,1.802
36.8800,1.786
36.9200,1.714
36.9600,1.754
37.0000,1.732
37.0400,1.656
37.0800,1.661
37.1200,1.651
37.1600,1.777
37.2000,1.797
37.2400,1.710
37.2800,1.704
37.3200,1.613
37.3600,1.645
37.4000,1.687
37.4400,1.672
37.4800,1.701
37.5200,1.721
37.5600,1.613
37.6000,1.638
37.6400,1.626
37.6800,1.654
37.7200,1.698
37.7600,1.695
37.8000,1.616
37.8400,1.649
37.8800,1.673
37.9200,1.670
37.9600,1.675
38.0000,1.672
38.0400,1.682
38.0800,1.683
38.1200,1.787
38.1600,1.806
38.2000,1.794
38.2400,1.816
38.2800,1.838
38.3200,1.939
38.3600,1.960
38.4000,2.017
38.4400,2.073
38.4800,2.207
38.5200,2.373
38.5600,2.480
38.6000,2.617
38.6400,3.031
38.6800,3.426
38.7200,3.687
38.7600,3.830
38.8000,3.554
38.8400,3.352
38.8800,2.985
38.9200,2.652
38.9600,2.446
39.0000,2.271
39.0400,2.136
39.0800,2.052
39.1200,2.042
39.1600,2.004
39.2000,1.952
39.2400,1.929
39.2800,2.042
39.3200,2.012
39.3600,1.987
39.4000,2.101
39.4400,2.070
39.4800,2.075
39.5200,2.276
39.5600,2.265
39.6000,2.428
39.6400,2.411
39.6800,2.453
39.7200,2.570
39.7600,2.793
39.8000,3.063
39.8400,3.371
39.8800,3.691
39.9200,4.129
39.9600,4.888
40.0000,5.555
40.0400,6.618
40.0800,7.751
40.1200,9.268
40.1600,10.779
40.2000,12.044
40.2400,13.149
40.2800,13.632
40.3200,13.430
40.3600,13.033
40.4000,12.041
40.4400,10.600
40.4800,9.407
40.5200,8.177
40.5600,7.132
40.6000,6.178
40.6400,5.364
40.6800,4.711
40.7200,4.152
40.7600,3.613
40.8000,3.066
40.8400,2.790
40.8800,2.542
40.9200,2.361
40.9600,2.267
41.0000,2.209
41.0400,2.180
41.0800,2.032
41.1200,2.027
41.1600,1.994
41.2000,1.991
41.2400,2.004
41.2800,1.948
41.3200,1.957
41.3600,1.947
41.4000,1.915
41.4400,1.738
41.4800,1.786
41.5200,1.620
41.5600,1.647
41.6000,1.534
41.6400,1.587
41.6800,1.497
41.7200,1.471
41.7600,1.515
41.8000,1.458
41.8400,1.458
41.8800,1.368
41.9200,1.496
41.9600,1.433
42.0000,1.467
42.0400,1.346
42.0800,1.419
42.1200,1.379
42.1600,1.340
42.2000,1.344
42.2400,1.308
42.2800,1.335
42.3200,1.318
42.3600,1.342
42.4000,1.349
42.4400,1.309
42.4800,1.326
42.5200,1.274
42.5600,1.270
42.6000,1.321
42.6400,1.264
42.6800,1.259
42.7200,1.251
42.7600,1.232
42.8000,1.229
42.8400,1.239
42.8800,1.213
42.9200,1.237
42.9600,1.227
43.0000,1.243
43.0400,1.208
43.0800,1.253
43.1200,1.248
43.1600,1.256
43.2000,1.214
43.2400,1.272
43.2800,1.271
43.3200,1.170
43.3600,1.217
43.4000,1.218
43.4400,1.200
43.4800,1.150
43.5200,1.219
43.5600,1.172
43.6000,1.162
43.6400,1.154
43.6800,1.151
43.7200,1.125
43.7600,1.208
43.8000,1.142
43.8400,1.114
43.8800,1.154
43.9200,1.213
43.9600,1.169
44.0000,1.155
44.0400,1.117
44.0800,1.105
44.1200,1.217
44.1600,1.155
44.2000,1.146
44.2400,1.230
44.2800,1.236
44.3200,1.211
44.3600,1.160
44.4000,1.226
44.4400,1.196
44.4800,1.229
44.5200,1.319
44.5600,1.230
44.6000,1.204
44.6400,1.249
44.6800,1.280
44.7200,1.237
44.7600,1.219
44.8000,1.202
44.8400,1.227
44.8800,1.158
44.9200,1.160
44.9600,1.206
45.0000,1.232
45.0400,1.274
45.0800,1.256
45.1200,1.300
45.1600,1.272
45.2000,1.364
45.2400,1.434
45.2800,1.376
45.3200,1.520
45.3600,1.431
45.4000,1.370
45.4400,1.419
45.4800,1.338
45.5200,1.318
45.5600,1.260
45.6000,1.230
45.6400,1.176
45.6800,1.172
45.7200,1.134
45.7600,1.185
45.8000,1.085
45.8400,1.045
45.8800,1.008
45.9200,1.027
45.9600,1.057
46.0000,1.039
46.0400,1.028
46.0800,1.081
46.1200,1.038
46.1600,1.043
46.2000,1.086
46.2400,1.048
46.2800,1.043
46.3200,1.064
46.3600,0.996
46.4000,1.016
46.4400,0.996
46.4800,1.061
46.5200,1.001
46.5600,1.043
46.6000,0.977
46.6400,1.019
46.6800,1.009
46.7200,0.939
46.7600,1.064
46.8000,1.037
46.8400,1.040
46.8800,1.015
46.9200,0.963
46.9600,0.994
47.0000,0.997
47.0400,0.989
47.0800,1.015
47.1200,1.006
47.1600,0.978
47.2000,1.009
47.2400,0.989
47.2800,0.987
47.3200,1.002
47.3600,0.999
47.4000,1.007
47.4400,0.982
47.4800,1.014
47.5200,0.980
47.5600,0.941
47.6000,1.003
47.6400,0.935
47.6800,0.972
47.7200,0.959
47.7600,0.984
47.8000,0.952
47.8400,0.961
47.8800,0.991
47.9200,0.939
47.9600,0.965
48.0000,0.945
48.0400,0.890
48.0800,0.905
48.1200,0.929
48.1600,0.976
48.2000,0.920
48.2400,0.978
48.2800,0.904
48.3200,0.949
48.3600,0.891
48.4000,0.907
48.4400,0.921
48.4800,0.939
48.5200,0.899
48.5600,0.858
48.6000,0.931
48.6400,0.908
48.6800,0.916
48.7200,0.912
48.7600,0.920
48.8000,0.904
48.8400,0.952
48.8800,0.947
48.9200,0.893
48.9600,0.876
49.0000,0.898
49.0400,0.885
49.0800,0.955
49.1200,0.874
49.1600,0.907
49.2000,0.939
49.2400,0.921
49.2800,0.936
49.3200,0.875
49.3600,0.903
49.4000,0.923
49.4400,0.975
49.4800,0.992
49.5200,1.034
49.5600,1.064
49.6000,1.085
49.6400,1.195
49.6800,1.249
49.7200,1.363
49.7600,1.368
49.8000,1.400
49.8400,1.457
49.8800,1.416
49.9200,1.372
49.9600,1.276
50.0000,1.217
50.0400,1.188
50.0800,1.163
50.1200,1.025
50.1600,1.069
50.2000,1.012
50.2400,0.957
50.2800,0.916
50.3200,0.911
50.3600,0.904
50.4000,0.887
50.4400,0.897
50.4800,0.909
50.5200,0.843
50.5600,0.834
50.6000,0.893
50.6400,0.898
50.6800,0.848
50.7200,0.831
50.7600,0.848
50.8000,0.862
50.8400,0.870
50.8800,0.897
50.9200,0.829
50.9600,0.856
51.0000,0.854
51.0400,0.876
51.0800,0.805
51.1200,0.847
51.1600,0.898
51.2000,0.874
51.2400,0.771
51.2800,0.827
51.3200,0.830
51.3600,0.840
51.4000,0.880
51.4400,0.857
51.4800,0.876
51.5200,0.774
51.5600,0.825
51.6000,0.784
51.6400,0.813
51.6800,0.810
51.7200,0.838
51.7600,0.759
51.8000,0.791
51.8400,0.795
51.8800,0.835
51.9200,0.808
51.9600,0.787
52.0000,0.777
52.0400,0.767
52.0800,0.804
52.1200,0.815
52.1600,0.756
52.2000,0.818
52.2400,0.730
52.2800,0.805
52.3200,0.805
52.3600,0.748
52.4000,0.781
52.4400,0.817
52.4800,0.799
52.5200,0.769
52.5600,0.756
52.6000,0.777
52.6400,0.806
52.6800,0.770
52.7200,0.736
52.7600,0.784
52.8000,0.756
52.8400,0.778
52.8800,0.782
52.9200,0.779
52.9600,0.726
53.0000,0.777
53.0400,0.781
53.0800,0.786
53.1200,0.777
53.1600,0.762
53.2000,0.737
53.2400,0.784
53.2800,0.727
53.3200,0.726
53.3600,0.739
53.4000,0.749
53.4400,0.761
53.4800,0.733
53.5200,0.703
53.5600,0.788
53.6000,0.781
53.6400,0.802
53.6800,0.749
53.7200,0.726
53.7600,0.750
53.8000,0.722
53.8400,0.767
53.8800,0.732
53.9200,0.728
53.9600,0.759
54.0000,0.758
54.0400,0.777
54.0800,0.719
54.1200,0.723
54.1600,0.762
54.2000,0.736
54.2400,0.755
54.2800,0.720
54.3200,0.732
54.3600,0.741
54.4000,0.739
54.4400,0.761
54.4800,0.698
54.5200,0.717
54.5600,0.762
54.6000,0.698
54.6400,0.728
54.6800,0.725
54.7200,0.720
54.7600,0.657
54.8000,0.730
54.8400,0.698
54.8800,0.719
54.9200,0.749
54.9600,0.718
55.0000,0.768
55.0400,0.777
55.0800,0.683
55.1200,0.712
55.1600,0.687
55.2000,0.706
55.2400,0.754
55.2800,0.708
55.3200,0.726
55.3600,0.746
55.4000,0.701
55.4400,0.735
55.4800,0.710
55.5200,0.755
55.5600,0.719
55.6000,0.718
55.6400,0.737
55.6800,0.717
55.7200,0.755
55.7600,0.722
55.8000,0.738
55.8400,0.745
55.8800,0.705
55.9200,0.731
55.9600,0.709
56.0000,0.765
56.0400,0.723
56.0800,0.770
56.1200,0.763
56.1600,0.732
56.2000,0.734
56.2400,0.755
56.2800,0.770
56.3200,0.762
56.3600,0.759
56.4000,0.757
56.4400,0.743
56.4800,0.755
56.5200,0.768
56.5600,0.778
56.6000,0.795
56.6400,0.767
56.6800,0.822
56.7200,0.793
56.7600,0.791
56.8000,0.765
56.8400,0.799
56.8800,0.719
56.9200,0.786
56.9600,0.758
57.0000,0.810
57.0400,0.746
57.0800,0.735
57.1200,0.777
57.1600,0.816
57.2000,0.801
57.2400,0.745
57.2800,0.745
57.3200,0.784
57.3600,0.771
57.4000,0.781
57.4400,0.768
57.4800,0.806
57.5200,0.779
57.5600,0.792
57.6000,0.804
57.6400,0.799
57.6800,0.812
57.7200,0.813
57.7600,0.813
57.8000,0.821
57.8400,0.900
57.8800,0.895
57.9200,0.912
57.9600,0.906
58.0000,0.957
58.0400,0.927
58.0800,1.005
58.1200,1.009
58.1600,1.037
58.2000,1.087
58.2400,1.110
58.2800,1.136
58.3200,1.186
58.3600,1.111
58.4000,1.165
58.4400,1.195
58.4800,1.215
58.5200,1.205
58.5600,1.197
58.6000,1.194
58.6400,1.154
58.6800,1.132
58.7200,1.065
58.7600,1.087
58.8000,0.993
58.8400,1.062
58.8800,1.050
58.9200,0.927
58.9600,0.974
59.0000,0.944
59.0400,0.907
59.0800,0.876
59.1200,0.937
59.1600,0.828
59.2000,0.791
59.2400,0.823
59.2800,0.800
59.3200,0.763
59.3600,0.737
59.4000,0.756
59.4400,0.733
59.4800,0.718
59.5200,0.736
59.5600,0.712
59.6000,0.743
59.6400,0.708
59.6800,0.695
59.7200,0.680
59.7600,0.697
59.8000,0.651
59.8400,0.689
59.8800,0.708
59.9200,0.670
59.9600,0.681
60.0000,0.683
60.0400,0.681
60.0800,0.639
60.1200,0.662
60.1600,0.684
60.2000,0.626
60.2400,0.686
60.2800,0.664
60.3200,0.676
60.3600,0.679
60.4000,0.656
60.4400,0.658
60.4800,0.640
60.5200,0.643
60.5600,0.651
60.6000,0.621
60.6400,0.620
60.6800,0.615
60.7200,0.608
60.7600,0.642
60.8000,0.647
60.8400,0.638
60.8800,0.611
60.9200,0.591
60.9600,0.622
61.0000,0.627
61.0400,0.562
61.0800,0.567
61.1200,0.597
61.1600,0.607
61.2000,0.608
61.2400,0.607
61.2800,0.605
61.3200,0.593
61.3600,0.573
61.4000,0.630
61.4400,0.647
61.4800,0.615
61.5200,0.609
61.5600,0.583
61.6000,0.632
61.6400,0.675
61.6800,0.728
61.7200,0.691
61.7600,0.578
61.8000,0.570
61.8400,0.578
61.8800,0.611
61.9200,0.572
61.9600,0.648
62.0000,0.602
62.0400,0.594
62.0800,0.620
62.1200,0.601
62.1600,0.614
62.2000,0.589
62.2400,0.598
62.2800,0.595
62.3200,0.591
62.3600,0.592
