theta,intensity
5.0000,4.429
5.0400,4.406
5.0800,4.418
5.1200,4.408
5.1600,4.343
5.2000,4.315
5.2400,4.179
5.2800,4.381
5.3200,4.350
5.3600,4.327
5.4000,4.142
5.4400,4.188
5.4800,4.234
5.5200,4.226
5.5600,4.186
5.6000,4.260
5.6400,4.169
5.6800,4.279
5.7200,4.161
5.7600,4.244
5.8000,4.181
5.8400,4.293
5.8800,4.215
5.9200,4.193
5.9600,4.168
6.0000,4.269
6.0400,4.176
6.0800,4.227
6.1200,4.328
6.1600,4.088
6.2000,4.232
6.2400,4.185
6.2800,4.024
6.3200,4.042
6.3600,3.982
6.4000,4.126
6.4400,3.936
6.4800,4.125
6.5200,4.054
6.5600,3.860
6.6000,4.084
6.6400,4.171
6.6800,4.001
6.7200,4.065
6.7600,3.913
6.8000,4.005
6.8400,3.963
6.8800,4.093
6.9200,3.974
6.9600,3.849
7.0000,4.022
7.0400,4.011
7.0800,3.940
7.1200,3.840
7.1600,3.969
7.2000,3.808
7.2400,3.848
7.2800,4.048
7.3200,3.986
7.3600,3.938
7.4000,3.937
7.4400,4.002
7.4800,3.971
7.5200,3.907
7.5600,4.027
7.6000,3.970
7.6400,3.908
7.6800,3.915
7.7200,3.905
7.7600,3.849
7.8000,3.939
7.8400,3.955
7.8800,3.905
7.9200,3.787
7.9600,3.846
8.0000,3.857
8.0400,3.815
8.0800,3.896
8.1200,3.635
8.1600,3.779
8.2000,3.892
8.2400,3.952
8.2800,3.720
8.3200,3.835
8.3600,3.856
8.4000,3.992
8.4400,3.761
8.4800,3.849
8.5200,3.788
8.5600,3.760
8.6000,3.766
8.6400,3.903
8.6800,3.897
8.7200,3.775
8.7600,3.849
8.8000,3.746
8.8400,3.859
8.8800,3.755
8.9200,3.820
8.9600,3.684
9.0000,3.775
9.0400,3.665
9.0800,3.638
9.1200,3.727
9.1600,3.783
9.2000,3.690
9.2400,3.811
9.2800,3.721
9.3200,3.693
9.3600,3.710
9.4000,3.686
9.4400,3.831
9.4800,3.765
9.5200,3.681
9.5600,3.605
9.6000,3.630
9.6400,3.772
9.6800,3.702
9.7200,3.681
9.7600,3.609
9.8000,3.617
9.8400,3.727
9.8800,3.680
9.9200,3.547
9.9600,3.573
10.0000,3.591
10.0400,3.683
10.0800,3.735
10.1200,3.721
10.1600,3.545
10.2000,3.596
10.2400,3.625
10.2800,3.576
10.3200,3.759
10.3600,3.561
10.4000,3.459
10.4400,3.698
10.4800,3.610
10.5200,3.610
10.5600,3.667
10.6000,3.679
10.6400,3.643
10.6800,3.713
10.7200,3.665
10.7600,3.431
10.8000,3.557
10.8400,3.590
10.8800,3.563
10.9200,3.618
10.9600,3.634
11.0000,3.497
11.0400,3.635
11.0800,3.614
11.1200,3.626
11.1600,3.470
11.2000,3.559
11.2400,3.544
11.2800,3.371
11.3200,3.450
11.3600,3.582
11.4000,3.603
11.4400,3.428
11.4800,3.366
11.5200,3.480
11.5600,3.457
11.6000,3.577
11.6400,3.479
11.6800,3.628
11.7200,3.504
11.7600,3.408
11.8000,3.386
11.8400,3.446
11.8800,3.499
11.9200,3.475
11.9600,3.535
12.0000,3.497
12.0400,3.563
12.0800,3.494
12.1200,3.498
12.1600,3.275
12.2000,3.408
12.2400,3.427
12.2800,3.469
12.3200,3.406
12.3600,3.430
12.4000,3.345
12.4400,3.505
12.4800,3.366
12.5200,3.273
12.5600,3.415
12.6000,3.405
12.6400,3.408
12.6800,3.468
12.7200,3.431
12.7600,3.360
12.8000,3.353
12.8400,3.377
12.8800,3.338
12.9200,3.325
12.9600,3.396
13.0000,3.389
13.0400,3.424
13.0800,3.325
13.1200,3.316
13.1600,3.283
13.2000,3.299
13.2400,3.199
13.2800,3.341
13.3200,3.346
13.3600,3.407
13.4000,3.355
13.4400,3.345
13.4800,3.147
13.5200,3.243
13.5600,3.258
13.6000,3.338
13.6400,3.288
13.6800,3.381
13.7200,3.371
13.7600,3.229
13.8000,3.272
13.8400,3.382
13.8800,3.383
13.9200,3.306
13.9600,3.364
14.0000,3.426
14.0400,3.351
14.0800,3.317
14.1200,3.346
14.1600,3.178
14.2000,3.347
14.2400,3.260
14.2800,3.253
14.3200,3.363
14.3600,3.220
14.4000,3.381
14.4400,3.279
14.4800,3.307
14.5200,3.338
14.5600,3.209
14.6000,3.208
14.6400,3.224
14.6800,3.357
14.7200,3.265
14.7600,3.406
14.8000,3.126
14.8400,3.293
14.8800,3.271
14.9200,3.317
14.9600,3.249
15.0000,3.234
15.0400,3.133
15.0800,3.274
15.1200,3.153
15.1600,3.298
15.2000,3.241
15.2400,3.237
15.2800,3.224
15.3200,3.211
15.3600,3.125
15.4000,3.126
15.4400,3.194
15.4800,3.050
15.5200,3.203
15.5600,3.164
15.6000,3.120
15.6400,3.110
15.6800,3.088
15.7200,3.112
15.7600,3.128
15.8000,3.083
15.8400,3.205
15.8800,3.040
15.9200,3.286
15.9600,3.057
16.0000,3.110
16.0400,3.064
16.0800,3.006
16.1200,3.057
16.1600,3.028
16.2000,3.149
16.2400,3.030
16.2800,3.126
16.3200,3.064
16.3600,3.168
16.4000,3.185
16.4400,3.073
16.4800,3.141
16.5200,3.040
16.5600,3.038
16.6000,3.021
16.6400,3.121
16.6800,3.090
16.7200,3.057
16.7600,3.040
16.8000,3.085
16.8400,3.061
16.8800,2.897
16.9200,3.171
16.9600,2.998
17.0000,2.992
17.0400,3.099
17.0800,3.027
17.1200,2.979
17.1600,3.041
17.2000,2.912
17.2400,2.925
17.2800,2.980
17.3200,3.071
17.3600,2.985
17.4000,3.024
17.4400,2.959
17.4800,3.017
17.5200,3.023
17.5600,3.061
17.6000,3.013
17.6400,2.865
17.6800,3.013
17.7200,2.991
17.7600,2.935
17.8000,2.942
17.8400,2.965
17.8800,2.961
17.9200,3.052
17.9600,2.902
18.0000,3.028
18.0400,3.043
18.0800,2.823
18.1200,2.781
18.1600,2.875
18.2000,2.908
18.2400,2.759
18.2800,2.856
18.3200,2.782
18.3600,3.016
18.4000,2.834
18.4400,2.907
18.4800,2.862
18.5200,2.836
18.5600,2.801
18.6000,2.753
18.6400,2.882
18.6800,2.950
18.7200,2.925
18.7600,2.841
18.8000,2.851
18.8400,2.836
18.8800,2.846
18.9200,2.897
18.9600,2.777
19.0000,2.815
19.0400,2.914
19.0800,2.841
19.1200,2.873
19.1600,2.850
19.2000,2.869
19.2400,2.755
19.2800,2.853
19.3200,2.784
19.3600,2.861
19.4000,2.832
19.4400,2.720
19.4800,2.858
19.5200,2.921
19.5600,2.961
19.6000,2.831
19.6400,2.848
19.6800,2.744
19.7200,2.869
19.7600,2.765
19.8000,2.733
19.8400,2.718
19.8800,2.619
19.9200,2.744
19.9600,2.617
20.0000,2.766
20.0400,2.791
20.0800,2.838
20.1200,2.798
20.1600,2.784
20.2000,2.796
20.2400,2.761
20.2800,2.822
20.3200,2.642
20.3600,2.701
20.4000,2.804
20.4400,2.625
20.4800,2.842
20.5200,2.683
20.5600,2.647
20.6000,2.733
20.6400,2.810
20.6800,2.640
20.7200,2.699
20.7600,2.692
20.8000,2.743
20.8400,2.658
20.8800,2.798
20.9200,2.799
20.9600,2.781
21.0000,2.646
21.0400,2.790
21.0800,2.596
21.1200,2.755
21.1600,2.764
21.2000,2.741
21.2400,2.723
21.2800,2.751
21.3200,2.659
21.3600,2.646
21.4000,2.723
21.4400,2.666
21.4800,2.731
21.5200,2.696
21.5600,2.596
21.6000,2.748
21.6400,2.636
21.6800,2.625
21.7200,2.636
21.7600,2.649
21.8000,2.557
21.8400,2.606
21.8800,2.610
21.9200,2.644
21.9600,2.646
22.0000,2.621
22.0400,2.663
22.0800,2.708
22.1200,2.554
22.1600,2.658
22.2000,2.664
22.2400,2.538
22.2800,2.599
22.3200,2.523
22.3600,2.577
22.4000,2.710
22.4400,2.672
22.4800,2.657
22.5200,2.617
22.5600,2.614
22.6000,2.625
22.6400,2.601
22.6800,2.701
22.7200,2.533
22.7600,2.624
22.8000,2.539
22.8400,2.573
22.8800,2.501
22.9200,2.604
22.9600,2.682
23.0000,2.568
23.0400,2.523
23.0800,2.554
23.1200,2.484
23.1600,2.589
23.2000,2.528
23.2400,2.568
23.2800,2.563
23.3200,2.582
23.3600,2.551
23.4000,2.431
23.4400,2.658
23.4800,2.714
23.5200,2.615
23.5600,2.640
23.6000,2.494
23.6400,2.578
23.6800,2.549
23.7200,2.559
23.7600,2.549
23.8000,2.588
23.8400,2.560
23.8800,2.491
23.9200,2.519
23.9600,2.640
24.0000,2.551
24.0400,2.658
24.0800,2.613
24.1200,2.536
24.1600,2.577
24.2000,2.593
24.2400,2.479
24.2800,2.478
24.3200,2.563
24.3600,2.472
24.4000,2.563
24.4400,2.639
24.4800,2.515
24.5200,2.507
24.5600,2.479
24.6000,2.551
24.6400,2.509
24.6800,2.498
24.7200,2.523
24.7600,2.565
24.8000,2.474
24.8400,2.420
24.8800,2.464
24.9200,2.353
24.9600,2.395
25.0000,2.586
25.0400,2.493
25.0800,2.512
25.1200,2.351
25.1600,2.335
25.2000,2.514
25.2400,2.378
25.2800,2.426
25.3200,2.540
25.3600,2.440
25.4000,2.429
25.4400,2.419
25.4800,2.381
25.5200,2.287
25.5600,2.381
25.6000,2.348
25.6400,2.247
25.6800,2.435
25.7200,2.346
25.7600,2.311
25.8000,2.411
25.8400,2.320
25.8800,2.417
25.9200,2.261
25.9600,2.340
26.0000,2.241
26.0400,2.283
26.0800,2.300
26.1200,2.424
26.1600,2.314
26.2000,2.261
26.2400,2.260
26.2800,2.240
26.3200,2.270
26.3600,2.329
26.4000,2.350
26.4400,2.320
26.4800,2.254
26.5200,2.387
26.5600,2.280
26.6000,2.286
26.6400,2.207
26.6800,2.322
26.7200,2.284
26.7600,2.259
26.8000,2.256
26.8400,2.362
26.8800,2.200
26.9200,2.150
26.9600,2.151
27.0000,2.228
27.0400,2.191
27.0800,2.254
27.1200,2.271
27.1600,2.191
27.2000,2.196
27.2400,2.317
27.2800,2.323
27.3200,2.300
27.3600,2.186
27.4000,2.227
27.4400,2.132
27.4800,2.134
27.5200,2.228
27.5600,2.168
27.6000,2.194
27.6400,2.163
27.6800,2.260
27.7200,2.116
27.7600,2.146
27.8000,2.207
27.8400,2.132
27.8800,2.135
27.9200,2.160
27.9600,2.159
28.0000,2.130
28.0400,2.109
28.0800,2.094
28.1200,2.105
28.1600,2.136
28.2000,2.097
28.2400,2.211
28.2800,2.120
28.3200,2.158
28.3600,2.063
28.4000,2.158
28.4400,2.008
28.4800,2.056
28.5200,2.058
28.5600,2.144
28.6000,2.191
28.6400,2.123
28.6800,2.198
28.7200,2.202
28.7600,2.079
28.8000,2.139
28.8400,2.078
28.8800,2.014
28.9200,2.087
28.9600,2.073
29.0000,2.058
29.0400,2.108
29.0800,2.076
29.1200,2.062
29.1600,2.055
29.2000,2.061
29.2400,2.043
29.2800,2.046
29.3200,2.048
29.3600,1.998
29.4000,1.958
29.4400,2.118
29.4800,2.062
29.5200,1.956
29.5600,2.128
29.6000,1.984
29.6400,2.043
29.6800,1.996
29.7200,2.102
29.7600,1.964
29.8000,2.101
29.8400,2.047
29.8800,2.043
29.9200,2.065
29.9600,1.965
30.0000,1.953
30.0400,1.964
30.0800,2.030
30.1200,2.094
30.1600,1.995
30.2000,2.027
30.2400,2.007
30.2800,1.977
30.3200,1.914
30.3600,1.992
30.4000,1.971
30.4400,1.919
30.4800,1.905
30.5200,2.060
30.5600,1.873
30.6000,1.969
30.6400,1.952
30.6800,1.945
30.7200,1.977
30.7600,2.005
30.8000,1.953
30.8400,1.933
30.8800,2.101
30.9200,1.914
30.9600,2.008
31.0000,1.898
31.0400,1.967
31.0800,1.978
31.1200,1.978
31.1600,1.902
31.2000,2.008
31.2400,2.072
31.2800,1.942
31.3200,2.019
31.3600,2.050
31.4000,2.001
31.4400,1.999
31.4800,1.918
31.5200,1.985
31.5600,1.998
31.6000,1.997
31.6400,1.989
31.6800,1.984
31.7200,2.038
31.7600,1.993
31.8000,2.132
31.8400,2.062
31.8800,2.201
31.9200,2.068
31.9600,2.021
32.0000,2.150
32.0400,2.067
32.0800,1.968
32.1200,1.966
32.1600,1.935
32.2000,2.063
32.2400,1.920
32.2800,1.964
32.3200,2.064
32.3600,2.038
32.4000,1.988
32.4400,1.918
32.4800,2.027
32.5200,1.890
32.5600,1.987
32.6000,1.906
32.6400,1.978
32.6800,1.978
32.7200,1.926
32.7600,1.853
32.8000,1.857
32.8400,1.942
32.8800,1.882
32.9200,1.835
32.9600,1.816
33.0000,1.842
33.0400,1.827
33.0800,1.859
33.1200,1.828
33.1600,1.780
33.2000,1.755
33.2400,1.742
33.2800,1.784
33.3200,1.783
33.3600,1.913
33.4000,1.856
33.4400,1.870
33.4800,1.823
33.5200,1.859
33.5600,1.792
33.6000,1.942
33.6400,1.847
33.6800,1.858
33.7200,1.770
33.7600,1.838
33.8000,1.751
33.8400,1.878
33.8800,1.812
33.9200,1.863
33.9600,1.814
34.0000,1.678
34.0400,1.863
34.0800,1.875
34.1200,1.905
34.1600,1.948
34.2000,1.823
34.2400,1.935
34.2800,1.834
34.3200,1.768
34.3600,1.846
34.4000,1.877
34.4400,1.916
34.4800,1.800
34.5200,1.874
34.5600,1.905
34.6000,1.849
34.6400,1.948
34.6800,1.753
34.7200,1.845
34.7600,1.776
34.8000,1.845
34.8400,1.878
34.8800,1.892
34.9200,1.914
34.9600,1.773
35.0000,1.723
35.0400,1.768
35.0800,1.842
35.1200,1.785
35.1600,1.751
35.2000,1.816
35.2400,1.741
35.2800,1.781
35.3200,1.825
35.3600,1.820
35.4000,1.751
35.4400,1.728
35.4800,1.796
35.5200,1.837
35.5600,1.781
35.6000,1.797
35.6400,1.829
35.6800,1.734
35.7200,1.765
35.7600,1.744
35.8000,1.768
35.8400,1.824
35.8800,1.817
35.9200,1.826
35.9600,1.851
36.0000,1.929
36.0400,1.831
36.0800,1.861
36.1200,1.890
36.1600,1.902
36.2000,1.928
36.2400,1.859
36.2800,1.898
36.3200,1.894
36.3600,1.796
36.4000,1.896
36.4400,1.862
36.4800,1.842
36.5200,1.882
36.5600,1.970
36.6000,1.791
36.6400,1.828
36.6800,1.820
36.7200,1.699
36.7600,1.723
36.8000,1.774
36.8400,1.720
36.8800,1.746
36.9200,1.726
36.9600,1.750
37.0000,1.750
37.0400,1.686
37.0800,1.666
37.1200,1.663
37.1600,1.691
37.2000,1.634
37.2400,1.674
37.2800,1.581
37.3200,1.593
37.3600,1.562
37.4000,1.616
37.4400,1.645
37.4800,1.626
37.5200,1.578
37.5600,1.505
37.6000,1.510
37.6400,1.456
37.6800,1.584
37.7200,1.468
37.7600,1.526
37.8000,1.537
37.8400,1.515
37.8800,1.540
37.9200,1.488
37.9600,1.578
38.0000,1.557
38.0400,1.465
38.0800,1.442
38.1200,1.495
38.1600,1.568
38.2000,1.450
38.2400,1.383
38.2800,1.450
38.3200,1.386
38.3600,1.394
38.4000,1.469
38.4400,1.531
38.4800,1.511
38.5200,1.460
38.5600,1.503
38.6000,1.450
38.6400,1.431
38.6800,1.528
38.7200,1.480
38.7600,1.498
38.8000,1.430
38.8400,1.496
38.8800,1.436
38.9200,1.392
38.9600,1.455
39.0000,1.544
39.0400,1.528
39.0800,1.452
39.1200,1.507
39.1600,1.469
39.2000,1.416
39.2400,1.534
39.2800,1.449
39.3200,1.497
39.3600,1.565
39.4000,1.520
39.4400,1.495
39.4800,1.508
39.5200,1.512
39.5600,1.506
39.6000,1.498
39.6400,1.541
39.6800,1.537
39.7200,1.432
39.7600,1.555
39.8000,1.503
39.8400,1.498
39.8800,1.514
39.9200,1.463
39.9600,1.466
40.0000,1.548
40.0400,1.557
40.0800,1.527
40.1200,1.507
40.1600,1.517
40.2000,1.500
40.2400,1.550
40.2800,1.465
40.3200,1.557
40.3600,1.540
40.4000,1.606
40.4400,1.696
40.4800,1.697
40.5200,1.691
40.5600,1.695
40.6000,1.856
40.6400,1.797
40.6800,1.813
40.7200,1.793
40.7600,1.917
40.8000,1.874
40.8400,1.941
40.8800,1.992
40.9200,2.098
40.9600,2.089
41.0000,2.192
41.0400,2.361
41.0800,2.392
41.1200,2.471
41.1600,2.611
41.2000,2.819
41.2400,3.047
41.2800,3.328
41.3200,3.463
41.3600,3.862
41.4000,4.109
41.4400,4.531
41.4800,4.819
41.5200,4.943
41.5600,5.170
41.6000,5.249
41.6400,5.157
41.6800,5.082
41.7200,4.745
41.7600,4.407
41.8000,3.969
41.8400,3.812
41.8800,3.488
41.9200,3.202
41.9600,3.025
42.0000,2.748
42.0400,2.624
42.0800,2.382
42.1200,2.278
42.1600,2.207
42.2000,2.091
42.2400,2.034
42.2800,1.867
42.3200,1.893
42.3600,1.706
42.4000,1.759
42.4400,1.663
42.4800,1.566
42.5200,1.581
42.5600,1.701
42.6000,1.581
42.6400,1.553
42.6800,1.600
42.7200,1.549
42.7600,1.472
42.8000,1.484
42.8400,1.438
42.8800,1.391
42.9200,1.472
42.9600,1.411
43.0000,1.316
43.0400,1.399
43.0800,1.315
43.1200,1.394
43.1600,1.339
43.2000,1.340
43.2400,1.432
43.2800,1.403
43.3200,1.430
43.3600,1.416
43.4000,1.403
43.4400,1.385
43.4800,1.355
43.5200,1.364
43.5600,1.379
43.6000,1.358
43.6400,1.337
43.6800,1.338
43.7200,1.347
43.7600,1.358
43.8000,1.381
43.8400,1.273
43.8800,1.324
43.9200,1.279
43.9600,1.306
44.0000,1.302
44.0400,1.305
44.0800,1.331
44.1200,1.226
44.1600,1.272
44.2000,1.320
44.2400,1.379
44.2800,1.406
44.3200,1.294
44.3600,1.350
44.4000,1.339
44.4400,1.363
44.4800,1.282
44.5200,1.294
44.5600,1.278
44.6000,1.306
44.6400,1.264
44.6800,1.196
44.7200,1.274
44.7600,1.328
44.8000,1.275
44.8400,1.265
44.8800,1.294
44.9200,1.213
44.9600,1.341
45.0000,1.241
45.0400,1.247
45.0800,1.182
45.1200,1.214
45.1600,1.232
45.2000,1.204
45.2400,1.170
45.2800,1.184
45.3200,1.141
45.3600,1.187
45.4000,1.219
45.4400,1.113
45.4800,1.193
45.5200,1.169
45.5600,1.141
45.6000,1.184
45.6400,1.120
45.6800,1.105
45.7200,1.129
45.7600,1.177
45.8000,1.098
45.8400,1.190
45.8800,1.166
45.9200,1.095
45.9600,1.134
46.0000,1.108
46.0400,1.053
46.0800,1.105
46.1200,1.171
46.1600,1.208
46.2000,1.159
46.2400,1.156
46.2800,1.224
46.3200,1.099
46.3600,1.045
46.4000,1.073
46.4400,1.080
46.4800,1.145
46.5200,1.132
46.5600,1.092
46.6000,1.199
46.6400,1.156
46.6800,1.136
46.7200,1.189
46.7600,1.163
46.8000,1.151
46.8400,1.138
46.8800,1.110
46.9200,1.130
46.9600,1.182
47.0000,1.187
47.0400,1.171
47.0800,1.169
47.1200,1.118
47.1600,1.192
47.2000,1.196
47.2400,1.195
47.2800,1.214
47.3200,1.247
47.3600,1.154
47.4000,1.195
47.4400,1.214
47.4800,1.335
47.5200,1.284
47.5600,1.279
47.6000,1.270
47.6400,1.300
47.6800,1.366
47.7200,1.330
47.7600,1.446
47.8000,1.439
47.8400,1.486
47.8800,1.540
47.9200,1.455
47.9600,1.452
48.0000,1.579
48.0400,1.587
48.0800,1.572
48.1200,1.609
48.1600,1.674
48.2000,1.802
48.2400,1.897
48.2800,1.837
48.3200,1.958
48.3600,2.005
48.4000,2.030
48.4400,1.935
48.4800,2.023
48.5200,1.948
48.5600,1.920
48.6000,1.804
48.6400,1.791
48.6800,1.692
48.7200,1.652
48.7600,1.506
48.8000,1.584
48.8400,1.402
48.8800,1.460
48.9200,1.368
48.9600,1.361
49.0000,1.258
49.0400,1.189
49.0800,1.173
49.1200,1.186
49.1600,1.169
49.2000,1.249
49.2400,1.141
49.2800,1.155
49.3200,1.099
49.3600,1.140
49.4000,1.114
49.4400,1.069
49.4800,0.971
49.5200,1.037
49.5600,1.041
49.6000,1.059
49.6400,1.004
49.6800,1.006
49.7200,0.925
49.7600,0.985
49.8000,0.990
49.8400,0.967
49.8800,0.970
49.9200,0.994
49.9600,0.963
50.0000,0.904
50.0400,0.929
50.0800,0.948
50.1200,1.003
50.1600,0.906
50.2000,0.932
50.2400,0.935
50.2800,0.983
50.3200,0.926
50.3600,0.945
50.4000,0.818
50.4400,0.913
50.4800,0.920
50.5200,0.893
50.5600,0.893
50.6000,0.906
50.6400,0.853
50.6800,0.890
50.7200,0.846
50.7600,0.878
50.8000,0.879
50.8400,0.840
50.8800,0.884
50.9200,0.870
50.9600,0.838
51.0000,0.910
51.0400,0.909
51.0800,0.814
51.1200,0.856
51.1600,0.902
51.2000,0.884
51.2400,0.856
51.2800,0.832
51.3200,0.845
51.3600,0.827
51.4000,0.869
51.4400,0.812
51.4800,0.909
51.5200,0.872
51.5600,0.834
51.6000,0.882
51.6400,0.841
51.6800,0.809
51.7200,0.838
51.7600,0.838
51.8000,0.820
51.8400,0.851
51.8800,0.892
51.9200,0.821
51.9600,0.830
52.0000,0.791
52.0400,0.776
52.0800,0.821
52.1200,0.844
52.1600,0.881
52.2000,0.873
52.2400,0.791
52.2800,0.847
52.3200,0.855
52.3600,0.824
52.4000,0.764
52.4400,0.791
52.4800,0.836
52.5200,0.808
52.5600,0.815
52.6000,0.746
52.6400,0.829
52.6800,0.823
52.7200,0.830
52.7600,0.818
52.8000,0.807
52.8400,0.804
52.8800,0.848
52.9200,0.827
52.9600,0.769
53.0000,0.809
53.0400,0.873
53.0800,0.802
53.1200,0.757
53.1600,0.779
53.2000,0.806
53.2400,0.804
53.2800,0.759
53.3200,0.781
53.3600,0.830
53.4000,0.832
53.4400,0.819
53.4800,0.841
53.5200,0.808
53.5600,0.790
53.6000,0.830
53.6400,0.856
53.6800,0.785
53.7200,0.746
53.7600,0.782
53.8000,0.767
53.8400,0.781
53.8800,0.778
53.9200,0.799
53.9600,0.799
54.0000,0.845
54.0400,0.818
54.0800,0.829
54.1200,0.755
54.1600,0.773
54.2000,0.706
54.2400,0.822
54.2800,0.752
54.3200,0.775
54.3600,0.815
54.4000,0.766
54.4400,0.764
54.4800,0.761
54.5200,0.791
54.5600,0.819
54.6000,0.850
54.6400,0.808
54.6800,0.759
54.7200,0.737
54.7600,0.731
54.8000,0.768
54.8400,0.781
54.8800,0.794
54.9200,0.824
54.9600,0.759
55.0000,0.759
55.0400,0.741
55.0800,0.822
55.1200,0.779
55.1600,0.726
55.2000,0.732
55.2400,0.720
55.2800,0.737
55.3200,0.746
55.3600,0.777
55.4000,0.757
55.4400,0.777
55.4800,0.741
55.5200,0.732
55.5600,0.776
55.6000,0.850
55.6400,0.770
55.6800,0.751
55.7200,0.724
55.7600,0.752
55.8000,0.741
55.8400,0.744
55.8800,0.777
55.9200,0.811
55.9600,0.788
56.0000,0.772
56.0400,0.805
56.0800,0.784
56.1200,0.793
56.1600,0.792
56.2000,0.721
56.2400,0.757
56.2800,0.866
56.3200,0.797
56.3600,0.790
56.4000,0.903
56.4400,0.865
56.4800,0.767
56.5200,0.858
56.5600,0.815
56.6000,0.828
56.6400,0.807
56.6800,0.732
56.7200,0.809
56.7600,0.816
56.8000,0.828
56.8400,0.854
56.8800,0.830
56.9200,0.779
56.9600,0.804
57.0000,0.811
57.0400,0.820
57.0800,0.793
57.1200,0.813
57.1600,0.781
57.2000,0.831
57.2400,0.787
57.2800,0.824
57.3200,0.787
57.3600,0.764
57.4000,0.760
57.4400,0.699
57.4800,0.710
57.5200,0.809
57.5600,0.778
57.6000,0.728
57.6400,0.754
57.6800,0.731
57.7200,0.761
57.7600,0.780
57.8000,0.655
57.8400,0.748
57.8800,0.748
57.9200,0.758
57.9600,0.700
58.0000,0.777
58.0400,0.665
58.0800,0.729
58.1200,0.743
58.1600,0.709
58.2000,0.671
58.2400,0.687
58.2800,0.776
58.3200,0.694
58.3600,0.714
58.4000,0.690
58.4400,0.713
58.4800,0.735
58.5200,0.653
58.5600,0.704
58.6000,0.702
58.6400,0.745
58.6800,0.729
58.7200,0.699
58.7600,0.656
58.8000,0.674
58.8400,0.652
58.8800,0.679
58.9200,0.762
58.9600,0.659
59.0000,0.777
59.0400,0.676
59.0800,0.647
59.1200,0.649
59.1600,0.692
59.2000,0.686
59.2400,0.695
59.2800,0.641
59.3200,0.662
59.3600,0.666
59.4000,0.699
59.4400,0.643
59.4800,0.687
59.5200,0.721
59.5600,0.701
59.6000,0.639
59.6400,0.709
59.6800,0.649
59.7200,0.679
59.7600,0.676
59.8000,0.637
59.8400,0.662
59.8800,0.725
59.9200,0.685
59.9600,0.649
60.0000,0.647
60.0400,0.673
60.0800,0.611
60.1200,0.625
60.1600,0.613
60.2000,0.664
60.2400,0.626
60.2800,0.627
60.3200,0.636
60.3600,0.663
60.4000,0.636
60.4400,0.627
60.4800,0.645
60.5200,0.642
60.5600,0.639
60.6000,0.669
60.6400,0.667
60.6800,0.675
60.7200,0.609
60.7600,0.633
60.8000,0.656
60.8400,0.733
60.8800,0.648
60.9200,0.660
60.9600,0.669
61.0000,0.686
61.0400,0.651
61.0800,0.689
61.1200,0.666
61.1600,0.627
61.2000,0.672
61.2400,0.649
61.2800,0.627
61.3200,0.676
61.3600,0.632
61.4000,0.636
61.4400,0.647
61.4800,0.642
61.5200,0.607
61.5600,0.605
61.6000,0.632
61.6400,0.680
61.6800,0.672
61.7200,0.686
61.7600,0.707
61.8000,0.684
61.8400,0.664
61.8800,0.646
61.9200,0.604
61.9600,0.643
62.0000,0.671
62.0400,0.636
62.0800,0.653
62.1200,0.636
62.1600,0.620
62.2000,0.646
62.2400,0.639
62.2800,0.634
62.3200,0.639
62.3600,0.613
62.4000,0.605
