theta,intensity
5.0000,5.068
5.0400,4.974
5.0800,4.989
5.1200,4.872
5.1600,4.626
5.2000,4.678
5.2400,4.991
5.2800,4.781
5.3200,4.720
5.3600,4.683
5.4000,4.663
5.4400,4.639
5.4800,4.534
5.5200,4.472
5.5600,4.470
5.6000,4.588
5.6400,4.306
5.6800,4.393
5.7200,4.422
5.7600,4.551
5.8000,4.321
5.8400,4.376
5.8800,4.296
5.9200,4.267
5.9600,4.347
6.0000,4.352
6.0400,4.270
6.0800,4.174
6.1200,4.135
6.1600,4.248
6.2000,4.311
6.2400,4.113
6.2800,4.105
6.3200,4.142
6.3600,4.205
6.4000,4.183
6.4400,4.227
6.4800,4.149
6.5200,4.038
6.5600,4.119
6.6000,4.108
6.6400,4.119
6.6800,4.055
6.7200,3.954
6.7600,3.985
6.8000,4.196
6.8400,4.097
6.8800,4.126
6.9200,4.014
6.9600,4.141
7.0000,4.051
7.0400,4.066
7.0800,4.020
7.1200,3.941
7.1600,4.002
7.2000,3.923
7.2400,4.126
7.2800,4.061
7.3200,3.889
7.3600,4.090
7.4000,4.074
7.4400,4.116
7.4800,3.967
7.5200,4.045
7.5600,4.008
7.6000,3.964
7.6400,4.154
7.6800,3.985
7.7200,4.026
7.7600,3.938
7.8000,3.798
7.8400,4.065
7.8800,4.001
7.9200,3.832
7.9600,3.861
8.0000,3.916
8.0400,3.908
8.0800,3.920
8.1200,3.960
8.1600,3.831
8.2000,3.884
8.2400,3.857
8.2800,3.726
8.3200,3.880
8.3600,3.712
8.4000,3.863
8.4400,3.843
8.4800,3.892
8.5200,3.601
8.5600,3.703
8.6000,3.777
8.6400,3.787
8.6800,3.856
8.7200,3.676
8.7600,3.830
8.8000,3.752
8.8400,3.874
8.8800,3.871
8.9200,3.865
8.9600,3.894
9.0000,3.718
9.0400,3.690
9.0800,3.698
9.1200,3.752
9.1600,3.762
9.2000,3.799
9.2400,3.755
9.2800,3.689
9.3200,3.723
9.3600,3.837
9.4000,3.812
9.4400,3.697
9.4800,3.607
9.5200,3.866
9.5600,3.694
9.6000,3.819
9.6400,3.761
9.6800,3.699
9.7200,3.727
9.7600,3.648
9.8000,3.726
9.8400,3.778
9.8800,3.667
9.9200,3.737
9.9600,3.554
10.0000,3.632
10.0400,3.818
10.0800,3.601
10.1200,3.765
10.1600,3.687
10.2000,3.613
10.2400,3.688
10.2800,3.740
10.3200,3.597
10.3600,3.636
10.4000,3.528
10.4400,3.605
10.4800,3.626
10.5200,3.583
10.5600,3.636
10.6000,3.679
10.6400,3.606
10.6800,3.412
10.7200,3.654
10.7600,3.642
10.8000,3.505
10.8400,3.457
10.8800,3.527
10.9200,3.797
10.9600,3.645
11.0000,3.558
11.0400,3.633
11.0800,3.577
11.1200,3.495
11.1600,3.535
11.2000,3.595
11.2400,3.629
11.2800,3.562
11.3200,3.582
11.3600,3.562
11.4000,3.568
11.4400,3.483
11.4800,3.423
11.5200,3.600
11.5600,3.574
11.6000,3.560
11.6400,3.598
11.6800,3.383
11.7200,3.406
11.7600,3.492
11.8000,3.374
11.8400,3.549
11.8800,3.443
11.9200,3.530
11.9600,3.541
12.0000,3.523
12.0400,3.377
12.0800,3.508
12.1200,3.316
12.1600,3.570
12.2000,3.367
12.2400,3.469
12.2800,3.519
12.3200,3.406
12.3600,3.438
12.4000,3.484
12.4400,3.421
12.4800,3.428
12.5200,3.353
12.5600,3.430
12.6000,3.417
12.6400,3.453
12.6800,3.348
12.7200,3.483
12.7600,3.373
12.8000,3.480
12.8400,3.264
12.8800,3.419
12.9200,3.481
12.9600,3.368
13.0000,3.316
13.0400,3.298
13.0800,3.274
13.1200,3.425
13.1600,3.331
13.2000,3.229
13.2400,3.512
13.2800,3.377
13.3200,3.370
13.3600,3.425
13.4000,3.287
13.4400,3.367
13.4800,3.235
13.5200,3.324
13.5600,3.374
13.6000,3.248
13.6400,3.275
13.6800,3.306
13.7200,3.227
13.7600,3.279
13.8000,3.247
13.8400,3.269
13.8800,3.229
13.9200,3.336
13.9600,3.242
14.0000,3.209
14.0400,3.205
14.0800,3.237
14.1200,3.356
14.1600,3.219
14.2000,3.245
14.2400,3.307
14.2800,3.338
14.3200,3.333
14.3600,3.271
14.4000,3.155
14.4400,3.187
14.4800,3.205
14.5200,3.191
14.5600,3.310
14.6000,3.219
14.6400,3.328
14.6800,3.342
14.7200,3.228
14.7600,3.288
14.8000,3.254
14.8400,3.251
14.8800,3.262
14.9200,3.210
14.9600,3.052
15.0000,3.197
15.0400,3.177
15.0800,3.136
15.1200,3.211
15.1600,3.255
15.2000,3.202
15.2400,3.235
15.2800,3.198
15.3200,3.221
15.3600,3.217
15.4000,3.214
15.4400,3.205
15.4800,3.126
15.5200,3.092
15.5600,3.129
15.6000,3.239
15.6400,3.105
15.6800,3.112
15.7200,3.116
15.7600,3.075
15.8000,3.109
15.8400,3.201
15.8800,3.101
15.9200,3.055
15.9600,3.224
16.0000,3.095
16.0400,2.989
16.0800,3.127
16.1200,3.059
16.1600,2.989
16.2000,3.131
16.2400,3.092
16.2800,3.146
16.3200,3.157
16.3600,3.000
16.4000,3.165
16.4400,2.992
16.4800,3.070
16.5200,3.036
16.5600,3.095
16.6000,2.935
16.6400,2.953
16.6800,3.076
16.7200,2.996
16.7600,3.092
16.8000,3.090
16.8400,3.025
16.8800,2.921
16.9200,2.980
16.9600,2.996
17.0000,2.929
17.0400,2.930
17.0800,3.100
17.1200,3.010
17.1600,2.996
17.2000,3.083
17.2400,2.993
17.2800,2.911
17.3200,2.984
17.3600,3.008
17.4000,2.913
17.4400,2.969
17.4800,3.009
17.5200,2.968
17.5600,2.912
17.6000,3.049
17.6400,2.907
17.6800,2.937
17.7200,2.897
17.7600,2.960
17.8000,2.943
17.8400,2.961
17.8800,2.903
17.9200,2.838
17.9600,2.850
18.0000,3.007
18.0400,2.986
18.0800,2.980
18.1200,2.862
18.1600,2.865
18.2000,2.879
18.2400,2.932
18.2800,2.956
18.3200,2.959
18.3600,2.860
18.4000,2.980
18.4400,2.894
18.4800,2.882
18.5200,2.883
18.5600,2.839
18.6000,2.873
18.6400,2.822
18.6800,2.757
18.7200,2.866
18.7600,2.887
18.8000,2.734
18.8400,2.808
18.8800,2.990
18.9200,2.879
18.9600,2.929
19.0000,2.854
19.0400,2.800
19.0800,2.859
19.1200,2.784
19.1600,2.719
19.2000,2.762
19.2400,2.819
19.2800,2.820
19.3200,2.912
19.3600,2.874
19.4000,2.736
19.4400,2.805
19.4800,2.845
19.5200,2.769
19.5600,2.785
19.6000,2.689
19.6400,2.789
19.6800,2.756
19.7200,2.753
19.7600,2.856
19.8000,2.810
19.8400,2.758
19.8800,2.690
19.9200,2.844
19.9600,2.855
20.0000,2.742
20.0400,2.702
20.0800,2.719
20.1200,2.824
20.1600,2.633
20.2000,2.781
20.2400,2.734
20.2800,2.738
20.3200,2.804
20.3600,2.763
20.4000,2.809
20.4400,2.716
20.4800,2.694
20.5200,2.775
20.5600,2.747
20.6000,2.819
20.6400,2.742
20.6800,2.658
20.7200,2.576
20.7600,2.677
20.8000,2.654
20.8400,2.722
20.8800,2.672
20.9200,2.660
20.9600,2.651
21.0000,2.572
21.0400,2.678
21.0800,2.713
21.1200,2.737
21.1600,2.774
21.2000,2.784
21.2400,2.669
21.2800,2.633
21.3200,2.606
21.3600,2.551
21.4000,2.662
21.4400,2.493
21.4800,2.601
21.5200,2.600
21.5600,2.572
21.6000,2.608
21.6400,2.630
21.6800,2.632
21.7200,2.585
21.7600,2.524
21.8000,2.604
21.8400,2.499
21.8800,2.641
21.9200,2.631
21.9600,2.625
22.0000,2.681
22.0400,2.546
22.0800,2.665
22.1200,2.731
22.1600,2.531
22.2000,2.641
22.2400,2.517
22.2800,2.553
22.3200,2.616
22.3600,2.486
22.4000,2.582
22.4400,2.542
22.4800,2.762
22.5200,2.606
22.5600,2.520
22.6000,2.602
22.6400,2.525
22.6800,2.705
22.7200,2.461
22.7600,2.561
22.8000,2.480
22.8400,2.466
22.8800,2.563
22.9200,2.634
22.9600,2.533
23.0000,2.495
23.0400,2.581
23.0800,2.475
23.1200,2.514
23.1600,2.515
23.2000,2.477
23.2400,2.480
23.2800,2.447
23.3200,2.590
23.3600,2.532
23.4000,2.628
23.4400,2.487
23.4800,2.641
23.5200,2.719
23.5600,2.755
23.6000,2.932
23.6400,3.100
23.6800,3.283
23.7200,3.247
23.7600,3.043
23.8000,3.067
23.8400,2.880
23.8800,2.754
23.9200,2.745
23.9600,2.511
24.0000,2.501
24.0400,2.629
24.0800,2.526
24.1200,2.420
24.1600,2.477
24.2000,2.508
24.2400,2.405
24.2800,2.409
24.3200,2.418
24.3600,2.408
24.4000,2.427
24.4400,2.456
24.4800,2.385
24.5200,2.378
24.5600,2.401
24.6000,2.389
24.6400,2.333
24.6800,2.319
24.7200,2.456
24.7600,2.426
24.8000,2.369
24.8400,2.351
24.8800,2.355
24.9200,2.410
24.9600,2.387
25.0000,2.418
25.0400,2.347
25.0800,2.349
25.1200,2.318
25.1600,2.484
25.2000,2.418
25.2400,2.403
25.2800,2.329
25.3200,2.367
25.3600,2.423
25.4000,2.383
25.4400,2.345
25.4800,2.377
25.5200,2.461
25.5600,2.204
25.6000,2.232
25.6400,2.374
25.6800,2.394
25.7200,2.255
25.7600,2.231
25.8000,2.169
25.8400,2.323
25.8800,2.294
25.9200,2.274
25.9600,2.270
26.0000,2.257
26.0400,2.293
26.0800,2.306
26.1200,2.329
26.1600,2.323
26.2000,2.238
26.2400,2.243
26.2800,2.316
26.3200,2.206
26.3600,2.219
26.4000,2.271
26.4400,2.237
26.4800,2.317
26.5200,2.286
26.5600,2.210
26.6000,2.297
26.6400,2.251
26.6800,2.216
26.7200,2.211
26.7600,2.235
26.8000,2.278
26.8400,2.211
26.8800,2.216
26.9200,2.278
26.9600,2.163
27.0000,2.225
27.0400,2.153
27.0800,2.136
27.1200,2.173
27.1600,2.173
27.2000,2.076
27.2400,2.304
27.2800,2.263
27.3200,2.282
27.3600,2.244
27.4000,2.204
27.4400,2.224
27.4800,2.225
27.5200,2.060
27.5600,2.180
27.6000,2.027
27.6400,2.102
27.6800,2.114
27.7200,2.206
27.7600,2.152
27.8000,2.259
27.8400,2.157
27.8800,2.135
27.9200,2.117
27.9600,2.256
28.0000,2.245
28.0400,2.215
28.0800,2.192
28.1200,2.332
28.1600,2.202
28.2000,2.318
28.2400,2.383
28.2800,2.480
28.3200,2.622
28.3600,2.652
28.4000,2.875
28.4400,3.118
28.4800,3.486
28.5200,3.775
28.5600,4.218
28.6000,4.686
28.6400,5.008
28.6800,4.973
28.7200,4.742
28.7600,4.587
28.8000,4.081
28.8400,3.617
28.8800,3.302
28.9200,2.947
28.9600,2.800
29.0000,2.428
29.0400,2.427
29.0800,2.322
29.1200,2.146
29.1600,2.228
29.2000,2.180
29.2400,2.232
29.2800,2.079
29.3200,2.050
29.3600,2.073
29.4000,2.047
29.4400,2.075
29.4800,2.027
29.5200,1.976
29.5600,2.061
29.6000,1.999
29.6400,2.003
29.6800,2.045
29.7200,1.965
29.7600,1.860
29.8000,1.956
29.8400,1.893
29.8800,1.932
29.9200,1.820
29.9600,1.969
30.0000,1.919
30.0400,2.022
30.0800,1.945
30.1200,1.967
30.1600,1.914
30.2000,1.934
30.2400,1.873
30.2800,1.984
30.3200,1.971
30.3600,1.925
30.4000,1.906
30.4400,1.905
30.4800,1.897
30.5200,2.009
30.5600,1.900
30.6000,1.842
30.6400,1.975
30.6800,1.851
30.7200,1.893
30.7600,1.993
30.8000,1.892
30.8400,1.873
30.8800,1.964
30.9200,1.877
30.9600,1.867
31.0000,1.938
31.0400,1.893
31.0800,1.887
31.1200,1.929
31.1600,1.875
31.2000,2.016
31.2400,2.022
31.2800,1.916
31.3200,2.027
31.3600,1.943
31.4000,1.900
31.4400,1.987
31.4800,1.984
31.5200,2.001
31.5600,2.016
31.6000,2.081
31.6400,1.983
31.6800,1.998
31.7200,1.984
31.7600,2.088
31.8000,2.066
31.8400,2.101
31.8800,2.012
31.9200,2.047
31.9600,1.978
32.0000,1.938
32.0400,1.971
32.0800,1.955
32.1200,1.986
32.1600,1.965
32.2000,1.899
32.2400,1.915
32.2800,1.912
32.3200,1.958
32.3600,1.829
32.4000,1.846
32.4400,1.810
32.4800,1.861
32.5200,1.917
32.5600,1.934
32.6000,1.829
32.6400,1.795
32.6800,1.842
32.7200,1.862
32.7600,1.714
32.8000,1.792
32.8400,1.727
32.8800,1.800
32.9200,1.893
32.9600,1.701
33.0000,1.834
33.0400,1.810
33.0800,1.710
33.1200,1.834
33.1600,1.670
33.2000,1.724
33.2400,1.764
33.2800,1.710
33.3200,1.657
33.3600,1.830
33.4000,1.698
33.4400,1.662
33.4800,1.823
33.5200,1.784
33.5600,1.736
33.6000,1.803
33.6400,1.706
33.6800,1.781
33.7200,1.751
33.7600,1.885
33.8000,1.847
33.8400,1.835
33.8800,1.705
33.9200,1.755
33.9600,1.713
34.0000,1.768
34.0400,1.812
34.0800,1.771
34.1200,1.787
34.1600,1.839
34.2000,1.754
34.2400,1.754
34.2800,1.734
34.3200,1.741
34.3600,1.786
34.4000,1.859
34.4400,1.764
34.4800,1.708
34.5200,1.773
34.5600,1.767
34.6000,1.849
34.6400,1.801
34.6800,1.775
34.7200,1.739
34.7600,1.807
34.8000,1.827
34.8400,1.687
34.8800,1.790
34.9200,1.775
34.9600,1.769
35.0000,1.723
35.0400,1.717
35.0800,1.739
35.1200,1.781
35.1600,1.635
35.2000,1.634
35.2400,1.660
35.2800,1.747
35.3200,1.659
35.3600,1.764
35.4000,1.602
35.4400,1.725
35.4800,1.665
35.5200,1.776
35.5600,1.747
35.6000,1.723
35.6400,1.735
35.6800,1.736
35.7200,1.720
35.7600,1.773
35.8000,1.782
35.8400,1.817
35.8800,1.763
35.9200,1.754
35.9600,1.783
36.0000,1.827
36.0400,1.784
36.0800,1.767
36.1200,1.757
36.1600,1.816
36.2000,1.731
36.2400,1.746
36.2800,1.789
36.3200,1.717
36.3600,1.789
36.4000,1.756
36.4400,1.794
36.4800,1.785
36.5200,1.801
36.5600,1.815
36.6000,1.820
36.6400,1.775
36.6800,1.770
36.7200,1.679
36.7600,1.701
36.8000,1.641
36.8400,1.645
36.8800,1.573
36.9200,1.665
36.9600,1.709
37.0000,1.664
37.0400,1.593
37.0800,1.631
37.1200,1.634
37.1600,1.494
37.2000,1.525
37.2400,1.545
37.2800,1.656
37.3200,1.489
37.3600,1.537
37.4000,1.484
37.4400,1.527
37.4800,1.536
37.5200,1.463
37.5600,1.528
37.6000,1.434
37.6400,1.488
37.6800,1.490
37.7200,1.413
37.7600,1.505
37.8000,1.517
37.8400,1.393
37.8800,1.419
37.9200,1.542
37.9600,1.480
38.0000,1.462
38.0400,1.464
38.0800,1.442
38.1200,1.461
38.1600,1.415
38.2000,1.344
38.2400,1.475
38.2800,1.408
38.3200,1.395
38.3600,1.481
38.4000,1.393
38.4400,1.332
38.4800,1.476
38.5200,1.470
38.5600,1.426
38.6000,1.348
38.6400,1.448
38.6800,1.360
38.7200,1.348
38.7600,1.323
38.8000,1.381
38.8400,1.454
38.8800,1.408
38.9200,1.472
38.9600,1.429
39.0000,1.450
39.0400,1.483
39.0800,1.436
39.1200,1.442
39.1600,1.436
39.2000,1.406
39.2400,1.375
39.2800,1.421
39.3200,1.454
39.3600,1.396
39.4000,1.535
39.4400,1.371
39.4800,1.393
39.5200,1.473
39.5600,1.467
39.6000,1.383
39.6400,1.434
39.6800,1.468
39.7200,1.432
39.7600,1.426
39.8000,1.543
39.8400,1.531
39.8800,1.478
39.9200,1.474
39.9600,1.574
40.0000,1.509
40.0400,1.645
40.0800,1.623
40.1200,1.546
40.1600,1.574
40.2000,1.766
40.2400,1.705
40.2800,1.811
40.3200,1.881
40.3600,1.908
40.4000,1.947
40.4400,2.084
40.4800,2.216
40.5200,2.563
40.5600,2.746
40.6000,3.320
40.6400,3.816
40.6800,4.787
40.7200,5.898
40.7600,7.352
40.8000,8.845
40.8400,10.223
40.8800,11.524
40.9200,11.816
40.9600,11.434
41.0000,10.444
41.0400,9.117
41.0800,7.302
41.1200,5.966
41.1600,4.856
41.2000,4.035
41.2400,3.564
41.2800,3.262
41.3200,2.857
41.3600,2.872
41.4000,2.864
41.4400,2.949
41.4800,3.228
41.5200,3.344
41.5600,3.691
41.6000,3.876
41.6400,3.851
41.6800,3.688
41.7200,3.615
41.7600,3.359
41.8000,2.988
41.8400,2.641
41.8800,2.281
41.9200,2.092
41.9600,1.901
42.0000,1.825
42.0400,1.717
42.0800,1.646
42.1200,1.583
42.1600,1.454
42.2000,1.455
42.2400,1.455
42.2800,1.440
42.3200,1.458
42.3600,1.361
42.4000,1.300
42.4400,1.331
42.4800,1.340
42.5200,1.255
42.5600,1.310
42.6000,1.317
42.6400,1.224
42.6800,1.211
42.7200,1.268
42.7600,1.274
42.8000,1.257
42.8400,1.192
42.8800,1.192
42.9200,1.200
42.9600,1.117
43.0000,1.231
43.0400,1.180
43.0800,1.161
43.1200,1.140
43.1600,1.102
43.2000,1.194
43.2400,1.172
43.2800,1.082
43.3200,1.195
43.3600,1.215
43.4000,1.083
43.4400,1.163
43.4800,1.063
43.5200,1.141
43.5600,1.223
43.6000,1.151
43.6400,1.096
43.6800,1.075
43.7200,1.098
43.7600,1.070
43.8000,1.140
43.8400,1.139
43.8800,1.068
43.9200,1.095
43.9600,1.079
44.0000,1.087
44.0400,1.088
44.0800,0.998
44.1200,1.042
44.1600,1.068
44.2000,1.109
44.2400,1.118
44.2800,1.089
44.3200,1.098
44.3600,1.046
44.4000,1.118
44.4400,1.069
44.4800,1.038
44.5200,1.054
44.5600,1.104
44.6000,0.983
44.6400,1.071
44.6800,1.059
44.7200,1.083
44.7600,1.064
44.8000,1.093
44.8400,1.046
44.8800,0.985
44.9200,0.977
44.9600,0.991
45.0000,1.009
45.0400,0.955
45.0800,1.057
45.1200,1.067
45.1600,1.043
45.2000,1.056
45.2400,1.022
45.2800,1.029
45.3200,1.014
45.3600,1.039
45.4000,1.004
45.4400,1.057
45.4800,1.008
45.5200,1.011
45.5600,1.009
45.6000,0.979
45.6400,0.945
45.6800,1.000
45.7200,0.954
45.7600,1.011
45.8000,0.982
45.8400,0.994
45.8800,0.987
45.9200,1.071
45.9600,1.013
46.0000,1.045
46.0400,0.936
46.0800,1.003
46.1200,0.963
46.1600,1.007
46.2000,1.013
46.2400,1.015
46.2800,1.080
46.3200,1.075
46.3600,1.032
46.4000,1.006
46.4400,1.037
46.4800,1.071
46.5200,1.000
46.5600,0.996
46.6000,0.989
46.6400,1.028
46.6800,1.038
46.7200,0.990
46.7600,0.952
46.8000,0.966
46.8400,0.942
46.8800,0.987
46.9200,0.985
46.9600,0.944
47.0000,0.959
47.0400,0.934
47.0800,1.040
47.1200,0.932
47.1600,0.945
47.2000,0.965
47.2400,0.922
47.2800,0.979
47.3200,1.006
47.3600,0.964
47.4000,0.987
47.4400,0.946
47.4800,0.925
47.5200,0.949
47.5600,0.905
47.6000,0.961
47.6400,0.927
47.6800,0.985
47.7200,0.968
47.7600,0.906
47.8000,0.938
47.8400,0.898
47.8800,0.949
47.9200,0.976
47.9600,0.915
48.0000,0.998
48.0400,0.901
48.0800,0.840
48.1200,0.914
48.1600,0.984
48.2000,0.977
48.2400,0.899
48.2800,0.946
48.3200,0.889
48.3600,0.913
48.4000,0.992
48.4400,0.921
48.4800,0.977
48.5200,0.955
48.5600,0.977
48.6000,1.023
48.6400,1.053
48.6800,0.973
48.7200,0.918
48.7600,0.914
48.8000,0.936
48.8400,0.945
48.8800,0.964
48.9200,0.874
48.9600,0.937
49.0000,0.969
49.0400,0.972
49.0800,0.825
49.1200,0.901
49.1600,0.874
49.2000,0.889
49.2400,0.860
49.2800,0.928
49.3200,0.854
49.3600,0.884
49.4000,0.921
49.4400,0.853
49.4800,0.855
49.5200,0.849
49.5600,0.871
49.6000,0.951
49.6400,0.825
49.6800,0.907
49.7200,0.905
49.7600,0.852
49.8000,0.830
49.8400,0.832
49.8800,0.813
49.9200,0.839
49.9600,0.869
50.0000,0.866
50.0400,0.821
50.0800,0.842
50.1200,0.883
50.1600,0.865
50.2000,0.840
50.2400,0.940
50.2800,0.992
50.3200,0.933
50.3600,0.975
50.4000,0.903
50.4400,1.059
50.4800,1.097
50.5200,1.285
50.5600,1.354
50.6000,1.439
50.6400,1.459
50.6800,1.494
50.7200,1.341
50.7600,1.327
50.8000,1.233
50.8400,1.150
50.8800,1.021
50.9200,0.952
50.9600,0.943
51.0000,0.940
51.0400,0.971
51.0800,0.796
51.1200,0.836
51.1600,0.835
51.2000,0.835
51.2400,0.773
51.2800,0.788
51.3200,0.829
51.3600,0.846
51.4000,0.783
51.4400,0.842
51.4800,0.854
51.5200,0.838
51.5600,0.829
51.6000,0.776
51.6400,0.802
51.6800,0.833
51.7200,0.819
51.7600,0.797
51.8000,0.865
51.8400,0.871
51.8800,0.757
51.9200,0.778
51.9600,0.747
52.0000,0.769
52.0400,0.789
52.0800,0.861
52.1200,0.803
52.1600,0.865
52.2000,0.792
52.2400,0.845
52.2800,0.727
52.3200,0.787
52.3600,0.771
52.4000,0.802
52.4400,0.743
52.4800,0.828
52.5200,0.855
52.5600,0.782
52.6000,0.755
52.6400,0.732
52.6800,0.755
52.7200,0.727
52.7600,0.793
52.8000,0.777
52.8400,0.819
52.8800,0.784
52.9200,0.744
52.9600,0.756
53.0000,0.740
53.0400,0.764
53.0800,0.722
53.1200,0.724
53.1600,0.809
53.2000,0.783
53.2400,0.715
53.2800,0.701
53.3200,0.757
53.3600,0.748
53.4000,0.719
53.4400,0.740
53.4800,0.667
53.5200,0.791
53.5600,0.708
53.6000,0.766
53.6400,0.807
53.6800,0.739
53.7200,0.691
53.7600,0.770
53.8000,0.718
53.8400,0.694
53.8800,0.688
53.9200,0.751
53.9600,0.705
54.0000,0.752
54.0400,0.714
54.0800,0.705
54.1200,0.768
54.1600,0.732
54.2000,0.696
54.2400,0.672
54.2800,0.710
54.3200,0.719
54.3600,0.735
54.4000,0.732
54.4400,0.746
54.4800,0.736
54.5200,0.707
54.5600,0.703
54.6000,0.740
54.6400,0.701
54.6800,0.730
54.7200,0.716
54.7600,0.673
54.8000,0.703
54.8400,0.711
54.8800,0.754
54.9200,0.754
54.9600,0.726
55.0000,0.695
55.0400,0.700
55.0800,0.650
55.1200,0.683
55.1600,0.663
55.2000,0.691
55.2400,0.686
55.2800,0.735
55.3200,0.701
55.3600,0.704
55.4000,0.678
55.4400,0.694
55.4800,0.679
55.5200,0.713
55.5600,0.640
55.6000,0.633
55.6400,0.716
55.6800,0.671
55.7200,0.728
55.7600,0.713
55.8000,0.674
55.8400,0.690
55.8800,0.711
55.9200,0.757
55.9600,0.703
56.0000,0.667
56.0400,0.735
56.0800,0.689
56.1200,0.664
56.1600,0.762
56.2000,0.691
56.2400,0.763
56.2800,0.740
56.3200,0.723
56.3600,0.702
56.4000,0.771
56.4400,0.721
56.4800,0.735
56.5200,0.734
56.5600,0.724
56.6000,0.725
56.6400,0.761
56.6800,0.699
56.7200,0.792
56.7600,0.719
56.8000,0.754
56.8400,0.753
56.8800,0.794
56.9200,0.719
56.9600,0.794
57.0000,0.694
57.0400,0.788
57.0800,0.738
57.1200,0.701
57.1600,0.643
57.2000,0.727
57.2400,0.697
57.2800,0.725
57.3200,0.699
57.3600,0.740
57.4000,0.759
57.4400,0.683
57.4800,0.750
57.5200,0.704
57.5600,0.701
57.6000,0.725
57.6400,0.667
57.6800,0.695
57.7200,0.671
57.7600,0.650
57.8000,0.711
57.8400,0.668
57.8800,0.730
57.9200,0.694
57.9600,0.741
58.0000,0.683
58.0400,0.642
58.0800,0.721
58.1200,0.698
58.1600,0.652
58.2000,0.639
58.2400,0.671
58.2800,0.690
58.3200,0.610
58.3600,0.626
58.4000,0.662
58.4400,0.706
58.4800,0.715
58.5200,0.756
58.5600,0.679
58.6000,0.766
58.6400,0.768
58.6800,0.719
58.7200,0.734
58.7600,0.725
58.8000,0.790
58.8400,0.768
58.8800,0.797
58.9200,0.866
58.9600,0.850
59.0000,0.897
59.0400,0.948
59.0800,0.969
59.1200,0.988
59.1600,1.075
59.2000,1.145
59.2400,1.163
59.2800,1.219
59.3200,1.239
59.3600,1.339
59.4000,1.319
59.4400,1.302
59.4800,1.206
59.5200,1.165
59.5600,1.145
59.6000,1.140
59.6400,1.006
59.6800,1.010
59.7200,0.965
59.7600,0.909
59.8000,0.893
59.8400,0.879
59.8800,0.825
59.9200,0.763
59.9600,0.857
60.0000,0.759
60.0400,0.790
60.0800,0.718
60.1200,0.770
60.1600,0.728
60.2000,0.706
60.2400,0.685
60.2800,0.655
60.3200,0.688
60.3600,0.699
60.4000,0.647
60.4400,0.675
60.4800,0.667
60.5200,0.632
60.5600,0.719
60.6000,0.748
60.6400,0.620
60.6800,0.610
60.7200,0.614
60.7600,0.646
60.8000,0.644
60.8400,0.605
60.8800,0.631
60.9200,0.593
60.9600,0.575
61.0000,0.590
61.0400,0.631
61.0800,0.590
61.1200,0.648
61.1600,0.606
61.2000,0.580
61.2400,0.567
61.2800,0.578
61.3200,0.573
61.3600,0.546
61.4000,0.598
61.4400,0.671
61.4800,0.541
61.5200,0.593
61.5600,0.626
61.6000,0.571
61.6400,0.594
61.6800,0.664
61.7200,0.663
61.7600,0.604
61.8000,0.654
61.8400,0.640
61.8800,0.659
61.9200,0.546
61.9600,0.589
62.0000,0.654
62.0400,0.600
62.0800,0.624
62.1200,0.594
62.1600,0.594
62.2000,0.566
62.2400,0.576
62.2800,0.571
62.3200,0.635
62.3600,0.641
62.4000,0.599
