theta,intensity
5.0000,6.778
5.0400,6.606
5.0800,6.602
5.1200,6.645
5.1600,6.587
5.2000,6.478
5.2400,6.511
5.2800,6.302
5.3200,6.389
5.3600,6.407
5.4000,6.341
5.4400,6.296
5.4800,6.164
5.5200,6.222
5.5600,6.037
5.6000,6.076
5.6400,5.798
5.6800,5.825
5.7200,5.810
5.7600,5.572
5.8000,5.666
5.8400,5.586
5.8800,5.438
5.9200,5.418
5.9600,5.187
6.0000,5.181
6.0400,4.990
6.0800,4.878
6.1200,4.753
6.1600,4.756
6.2000,4.666
6.2400,4.581
6.2800,4.719
6.3200,4.600
6.3600,4.496
6.4000,4.485
6.4400,4.485
6.4800,4.399
6.5200,4.458
6.5600,4.378
6.6000,4.364
6.6400,4.313
6.6800,4.314
6.7200,4.362
6.7600,4.385
6.8000,4.353
6.8400,4.239
6.8800,4.283
6.9200,4.181
6.9600,4.234
7.0000,4.277
7.0400,4.142
7.0800,4.171
7.1200,4.199
7.1600,4.090
7.2000,4.097
7.2400,4.173
7.2800,4.099
7.3200,4.172
7.3600,4.097
7.4000,4.102
7.4400,4.094
7.4800,4.161
7.5200,4.042
7.5600,4.088
7.6000,4.112
7.6400,4.079
7.6800,4.112
7.7200,4.085
7.7600,4.079
7.8000,4.077
7.8400,4.090
7.8800,4.102
7.9200,4.046
7.9600,4.033
8.0000,4.091
8.0400,3.982
8.0800,4.099
8.1200,4.078
8.1600,4.049
8.2000,4.013
8.2400,4.094
8.2800,3.924
8.3200,3.963
8.3600,4.016
8.4000,4.021
8.4400,3.978
8.4800,3.972
8.5200,4.036
8.5600,4.010
8.6000,4.043
8.6400,3.897
8.6800,3.909
8.7200,3.906
8.7600,3.825
8.8000,3.959
8.8400,3.967
8.8800,3.919
8.9200,3.855
8.9600,3.862
9.0000,3.979
9.0400,4.010
9.0800,3.910
9.1200,3.996
9.1600,3.900
9.2000,3.879
9.2400,3.886
9.2800,3.912
9.3200,3.911
9.3600,3.838
9.4000,3.849
9.4400,3.822
9.4800,3.836
9.5200,3.847
9.5600,3.756
9.6000,3.834
9.6400,3.841
9.6800,3.794
9.7200,3.703
9.7600,3.834
9.8000,3.813
9.8400,3.845
9.8800,3.805
9.9200,3.706
9.9600,3.868
10.0000,3.800
10.0400,3.710
10.0800,3.856
10.1200,3.868
10.1600,3.716
10.2000,3.823
10.2400,3.757
10.2800,3.845
10.3200,3.759
10.3600,3.749
10.4000,3.634
10.4400,3.663
10.4800,3.792
10.5200,3.626
10.5600,3.700
10.6000,3.683
10.6400,3.791
10.6800,3.585
10.7200,3.699
10.7600,3.658
10.8000,3.782
10.8400,3.742
10.8800,3.654
10.9200,3.607
10.9600,3.709
11.0000,3.766
11.0400,3.666
11.0800,3.720
11.1200,3.733
11.1600,3.727
11.2000,3.723
11.2400,3.607
11.2800,3.747
11.3200,3.605
11.3600,3.697
11.4000,3.703
11.4400,3.702
11.4800,3.649
11.5200,3.524
11.5600,3.687
11.6000,3.674
11.6400,3.635
11.6800,3.634
11.7200,3.622
11.7600,3.574
11.8000,3.611
11.8400,3.655
11.8800,3.669
11.9200,3.543
11.9600,3.615
12.0000,3.617
12.0400,3.626
12.0800,3.612
12.1200,3.542
12.1600,3.537
12.2000,3.544
12.2400,3.551
12.2800,3.510
12.3200,3.582
12.3600,3.541
12.4000,3.487
12.4400,3.497
12.4800,3.575
12.5200,3.535
12.5600,3.611
12.6000,3.549
12.6400,3.464
12.6800,3.524
12.7200,3.538
12.7600,3.567
12.8000,3.569
12.8400,3.542
12.8800,3.428
12.9200,3.439
12.9600,3.469
13.0000,3.452
13.0400,3.400
13.0800,3.408
13.1200,3.451
13.1600,3.508
13.2000,3.365
13.2400,3.402
13.2800,3.457
13.3200,3.452
13.3600,3.440
13.4000,3.471
13.4400,3.363
13.4800,3.471
13.5200,3.431
13.5600,3.433
13.6000,3.432
13.6400,3.405
13.6800,3.261
13.7200,3.514
13.7600,3.292
13.8000,3.502
13.8400,3.454
13.8800,3.315
13.9200,3.335
13.9600,3.420
14.0000,3.339
14.0400,3.283
14.0800,3.254
14.1200,3.384
14.1600,3.249
14.2000,3.368
14.2400,3.322
14.2800,3.357
14.3200,3.441
14.3600,3.489
14.4000,3.332
14.4400,3.320
14.4800,3.224
14.5200,3.248
14.5600,3.177
14.6000,3.318
14.6400,3.207
14.6800,3.182
14.7200,3.389
14.7600,3.290
14.8000,3.219
14.8400,3.235
14.8800,3.251
14.9200,3.352
14.9600,3.303
15.0000,3.279
15.0400,3.256
15.0800,3.410
15.1200,3.187
15.1600,3.140
15.2000,3.226
15.2400,3.236
15.2800,3.209
15.3200,3.293
15.3600,3.244
15.4000,3.178
15.4400,3.213
15.4800,3.154
15.5200,3.291
15.5600,3.293
15.6000,3.332
15.6400,3.160
15.6800,3.116
15.7200,3.260
15.7600,3.264
15.8000,3.276
15.8400,3.255
15.8800,3.166
15.9200,3.153
15.9600,3.231
16.0000,3.218
16.0400,3.102
16.0800,3.226
16.1200,3.254
16.1600,3.179
16.2000,3.108
16.2400,3.050
16.2800,3.075
16.3200,3.177
16.3600,3.218
16.4000,3.244
16.4400,3.159
16.4800,3.100
16.5200,3.142
16.5600,3.145
16.6000,3.193
16.6400,3.181
16.6800,3.144
16.7200,3.100
16.7600,3.208
16.8000,3.186
16.8400,3.147
16.8800,3.193
16.9200,3.143
16.9600,3.107
17.0000,3.075
17.0400,3.116
17.0800,3.073
17.1200,3.050
17.1600,3.103
17.2000,2.989
17.2400,3.025
17.2800,2.991
17.3200,3.060
17.3600,3.101
17.4000,3.127
17.4400,3.018
17.4800,3.023
17.5200,2.950
17.5600,3.115
17.6000,2.965
17.6400,3.041
17.6800,3.046
17.7200,2.945
17.7600,3.047
17.8000,3.024
17.8400,2.945
17.8800,3.167
17.9200,2.974
17.9600,2.933
18.0000,3.015
18.0400,2.952
18.0800,2.985
18.1200,3.023
18.1600,3.009
18.2000,2.929
18.2400,2.929
18.2800,3.033
18.3200,2.967
18.3600,2.903
18.4000,3.057
18.4400,2.891
18.4800,2.920
18.5200,2.877
18.5600,2.917
18.6000,2.936
18.6400,2.946
18.6800,2.994
18.7200,2.903
18.7600,2.948
18.8000,2.899
18.8400,2.951
18.8800,2.925
18.9200,2.870
18.9600,2.851
19.0000,2.854
19.0400,2.865
19.0800,2.891
19.1200,2.906
19.1600,2.943
19.2000,2.947
19.2400,2.835
19.2800,2.988
19.3200,2.971
19.3600,2.935
19.4000,2.933
19.4400,2.873
19.4800,2.857
19.5200,2.912
19.5600,2.820
19.6000,2.840
19.6400,2.862
19.6800,2.823
19.7200,2.863
19.7600,2.869
19.8000,2.765
19.8400,2.861
19.8800,2.819
19.9200,2.786
19.9600,2.783
20.0000,2.787
20.0400,2.730
20.0800,2.786
20.1200,2.863
20.1600,2.693
20.2000,2.829
20.2400,2.777
20.2800,2.845
20.3200,2.760
20.3600,2.768
20.4000,2.726
20.4400,2.781
20.4800,2.831
20.5200,2.760
20.5600,2.716
20.6000,2.794
20.6400,2.700
20.6800,2.735
20.7200,2.617
20.7600,2.708
20.8000,2.739
20.8400,2.752
20.8800,2.682
20.9200,2.751
20.9600,2.710
21.0000,2.754
21.0400,2.828
21.0800,2.659
21.1200,2.732
21.1600,2.687
21.2000,2.712
21.2400,2.742
21.2800,2.671
21.3200,2.684
21.3600,2.661
21.4000,2.667
21.4400,2.783
21.4800,2.738
21.5200,2.695
21.5600,2.638
21.6000,2.678
21.6400,2.680
21.6800,2.695
21.7200,2.678
21.7600,2.689
21.8000,2.675
21.8400,2.647
21.8800,2.759
21.9200,2.668
21.9600,2.689
22.0000,2.734
22.0400,2.716
22.0800,2.718
22.1200,2.680
22.1600,2.705
22.2000,2.793
22.2400,2.804
22.2800,2.757
22.3200,2.795
22.3600,2.794
22.4000,2.828
22.4400,2.877
22.4800,2.983
22.5200,3.031
22.5600,2.825
22.6000,2.810
22.6400,2.827
22.6800,2.757
22.7200,2.691
22.7600,2.709
22.8000,2.648
22.8400,2.739
22.8800,2.671
22.9200,2.533
22.9600,2.669
23.0000,2.546
23.0400,2.573
23.0800,2.628
23.1200,2.604
23.1600,2.535
23.2000,2.534
23.2400,2.601
23.2800,2.519
23.3200,2.513
23.3600,2.579
23.4000,2.522
23.4400,2.599
23.4800,2.522
23.5200,2.582
23.5600,2.481
23.6000,2.507
23.6400,2.463
23.6800,2.478
23.7200,2.565
23.7600,2.451
23.8000,2.411
23.8400,2.455
23.8800,2.412
23.9200,2.466
23.9600,2.476
24.0000,2.437
24.0400,2.459
24.0800,2.526
24.1200,2.473
24.1600,2.450
24.2000,2.349
24.2400,2.457
24.2800,2.488
24.3200,2.432
24.3600,2.472
24.4000,2.368
24.4400,2.379
24.4800,2.420
24.5200,2.442
24.5600,2.471
24.6000,2.449
24.6400,2.395
24.6800,2.346
24.7200,2.395
24.7600,2.390
24.8000,2.415
24.8400,2.447
24.8800,2.414
24.9200,2.335
24.9600,2.340
25.0000,2.322
25.0400,2.350
25.0800,2.367
25.1200,2.319
25.1600,2.389
25.2000,2.222
25.2400,2.351
25.2800,2.371
25.3200,2.371
25.3600,2.393
25.4000,2.317
25.4400,2.310
25.4800,2.309
25.5200,2.277
25.5600,2.281
25.6000,2.347
25.6400,2.290
25.6800,2.368
25.7200,2.282
25.7600,2.270
25.8000,2.277
25.8400,2.254
25.8800,2.357
25.9200,2.323
25.9600,2.248
26.0000,2.295
26.0400,2.263
26.0800,2.169
26.1200,2.214
26.1600,2.267
26.2000,2.229
26.2400,2.288
26.2800,2.288
26.3200,2.289
26.3600,2.261
26.4000,2.323
26.4400,2.230
26.4800,2.249
26.5200,2.177
26.5600,2.193
26.6000,2.237
26.6400,2.234
26.6800,2.153
26.7200,2.265
26.7600,2.251
26.8000,2.218
26.8400,2.171
26.8800,2.157
26.9200,2.224
26.9600,2.171
27.0000,2.165
27.0400,2.142
27.0800,2.059
27.1200,2.164
27.1600,2.109
27.2000,2.116
27.2400,2.118
27.2800,2.147
27.3200,2.247
27.3600,2.145
27.4000,2.051
27.4400,2.153
27.4800,2.168
27.5200,2.125
27.5600,2.252
27.6000,2.201
27.6400,2.129
27.6800,2.077
27.7200,2.120
27.7600,2.204
27.8000,2.079
27.8400,2.068
27.8800,2.103
27.9200,2.131
27.9600,2.111
28.0000,2.117
28.0400,2.123
28.0800,2.130
28.1200,2.081
28.1600,2.014
28.2000,2.103
28.2400,2.075
28.2800,2.078
28.3200,2.125
28.3600,2.037
28.4000,1.986
28.4400,2.081
28.4800,2.039
28.5200,2.069
28.5600,2.040
28.6000,2.041
28.6400,2.102
28.6800,1.980
28.7200,1.995
28.7600,2.137
28.8000,2.132
28.8400,2.082
28.8800,2.053
28.9200,2.004
28.9600,2.065
29.0000,2.012
29.0400,1.972
29.0800,2.017
29.1200,2.041
29.1600,2.038
29.2000,2.029
29.2400,1.972
29.2800,1.962
29.3200,1.978
29.3600,1.987
29.4000,1.941
29.4400,1.925
29.4800,1.994
29.5200,1.969
29.5600,2.005
29.6000,2.071
29.6400,1.971
29.6800,1.943
29.7200,1.986
29.7600,1.966
29.8000,1.958
29.8400,1.983
29.8800,1.914
29.9200,1.981
29.9600,1.946
30.0000,1.953
30.0400,1.983
30.0800,1.926
30.1200,1.990
30.1600,1.957
30.2000,1.922
30.2400,1.919
30.2800,1.970
30.3200,1.909
30.3600,1.943
30.4000,1.867
30.4400,1.900
30.4800,1.933
30.5200,1.869
30.5600,1.848
30.6000,1.870
30.6400,1.859
30.6800,1.882
30.7200,2.031
30.7600,1.883
30.8000,1.811
30.8400,1.875
30.8800,1.928
30.9200,1.946
30.9600,1.914
31.0000,1.884
31.0400,1.881
31.0800,1.825
31.1200,1.876
31.1600,1.853
31.2000,1.844
31.2400,1.906
31.2800,1.892
31.3200,1.831
31.3600,1.873
31.4000,1.907
31.4400,1.820
31.4800,1.907
31.5200,1.934
31.5600,1.849
31.6000,1.920
31.6400,1.954
31.6800,1.905
31.7200,1.985
31.7600,1.996
31.8000,2.004
31.8400,2.059
31.8800,2.081
31.9200,2.106
31.9600,2.088
32.0000,2.058
32.0400,2.045
32.0800,1.984
32.1200,2.008
32.1600,1.904
32.2000,1.930
32.2400,1.924
32.2800,1.834
32.3200,1.908
32.3600,1.870
32.4000,1.812
32.4400,1.812
32.4800,1.774
32.5200,1.846
32.5600,1.807
32.6000,1.776
32.6400,1.822
32.6800,1.770
32.7200,1.790
32.7600,1.774
32.8000,1.806
32.8400,1.719
32.8800,1.789
32.9200,1.816
32.9600,1.783
33.0000,1.731
33.0400,1.723
33.0800,1.801
33.1200,1.779
33.1600,1.715
33.2000,1.706
33.2400,1.661
33.2800,1.744
33.3200,1.694
33.3600,1.678
33.4000,1.656
33.4400,1.728
33.4800,1.732
33.5200,1.698
33.5600,1.652
33.6000,1.731
33.6400,1.747
33.6800,1.689
33.7200,1.698
33.7600,1.657
33.8000,1.657
33.8400,1.597
33.8800,1.675
33.9200,1.771
33.9600,1.644
34.0000,1.652
34.0400,1.657
34.0800,1.665
34.1200,1.728
34.1600,1.614
34.2000,1.664
34.2400,1.603
34.2800,1.639
34.3200,1.654
34.3600,1.686
34.4000,1.646
34.4400,1.635
34.4800,1.672
34.5200,1.573
34.5600,1.581
34.6000,1.630
34.6400,1.568
34.6800,1.585
34.7200,1.672
34.7600,1.641
34.8000,1.598
34.8400,1.628
34.8800,1.586
34.9200,1.604
34.9600,1.620
35.0000,1.621
35.0400,1.570
35.0800,1.527
35.1200,1.560
35.1600,1.541
35.2000,1.594
35.2400,1.552
35.2800,1.532
35.3200,1.614
35.3600,1.612
35.4000,1.571
35.4400,1.624
35.4800,1.595
35.5200,1.600
35.5600,1.615
35.6000,1.516
35.6400,1.506
35.6800,1.563
35.7200,1.556
35.7600,1.564
35.8000,1.547
35.8400,1.569
35.8800,1.642
35.9200,1.555
35.9600,1.597
36.0000,1.536
36.0400,1.496
36.0800,1.469
36.1200,1.490
36.1600,1.498
36.2000,1.563
36.2400,1.514
36.2800,1.577
36.3200,1.495
36.3600,1.540
36.4000,1.513
36.4400,1.534
36.4800,1.525
36.5200,1.514
36.5600,1.507
36.6000,1.563
36.6400,1.513
36.6800,1.546
36.7200,1.494
36.7600,1.474
36.8000,1.487
36.8400,1.480
36.8800,1.533
36.9200,1.505
36.9600,1.500
37.0000,1.531
37.0400,1.593
37.0800,1.527
37.1200,1.481
37.1600,1.583
37.2000,1.523
37.2400,1.455
37.2800,1.530
37.3200,1.507
37.3600,1.575
37.4000,1.526
37.4400,1.566
37.4800,1.574
37.5200,1.614
37.5600,1.602
37.6000,1.485
37.6400,1.530
37.6800,1.510
37.7200,1.608
37.7600,1.594
37.8000,1.577
37.8400,1.598
37.8800,1.603
37.9200,1.507
37.9600,1.604
38.0000,1.578
38.0400,1.557
38.0800,1.609
38.1200,1.613
38.1600,1.631
38.2000,1.609
38.2400,1.645
38.2800,1.752
38.3200,1.738
38.3600,1.811
38.4000,1.786
38.4400,1.867
38.4800,1.952
38.5200,1.899
38.5600,2.044
38.6000,2.085
38.6400,2.178
38.6800,2.338
38.7200,2.475
38.7600,2.650
38.8000,2.905
38.8400,3.205
38.8800,3.609
38.9200,4.162
38.9600,4.973
39.0000,6.179
39.0400,7.651
39.0800,9.385
39.1200,10.731
39.1600,11.678
39.2000,12.537
39.2400,12.631
39.2800,12.412
39.3200,12.045
39.3600,11.055
39.4000,10.214
39.4400,9.011
39.4800,7.592
39.5200,6.597
39.5600,5.606
39.6000,4.604
39.6400,3.946
39.6800,3.403
39.7200,3.030
39.7600,2.656
39.8000,2.494
39.8400,2.221
39.8800,2.078
39.9200,2.007
39.9600,1.847
40.0000,1.859
40.0400,1.757
40.0800,1.674
40.1200,1.647
40.1600,1.596
40.2000,1.597
40.2400,1.549
40.2800,1.574
40.3200,1.477
40.3600,1.553
40.4000,1.401
40.4400,1.482
40.4800,1.446
40.5200,1.481
40.5600,1.464
40.6000,1.439
40.6400,1.348
40.6800,1.392
40.7200,1.429
40.7600,1.380
40.8000,1.398
40.8400,1.446
40.8800,1.301
40.9200,1.289
40.9600,1.320
41.0000,1.288
41.0400,1.265
41.0800,1.318
41.1200,1.243
41.1600,1.308
41.2000,1.275
41.2400,1.231
41.2800,1.304
41.3200,1.301
41.3600,1.266
41.4000,1.277
41.4400,1.291
41.4800,1.202
41.5200,1.254
41.5600,1.217
41.6000,1.196
41.6400,1.185
41.6800,1.222
41.7200,1.246
41.7600,1.252
41.8000,1.247
41.8400,1.228
41.8800,1.269
41.9200,1.252
41.9600,1.177
42.0000,1.258
42.0400,1.223
42.0800,1.259
42.1200,1.186
42.1600,1.168
42.2000,1.247
42.2400,1.190
42.2800,1.212
42.3200,1.202
42.3600,1.115
42.4000,1.195
42.4400,1.167
42.4800,1.224
42.5200,1.202
42.5600,1.183
42.6000,1.173
42.6400,1.099
42.6800,1.196
42.7200,1.169
42.7600,1.136
42.8000,1.150
42.8400,1.163
42.8800,1.122
42.9200,1.103
42.9600,1.141
43.0000,1.134
43.0400,1.168
43.0800,1.187
43.1200,1.180
43.1600,1.131
43.2000,1.149
43.2400,1.142
43.2800,1.173
43.3200,1.208
43.3600,1.125
43.4000,1.141
43.4400,1.129
43.4800,1.108
43.5200,1.134
43.5600,1.097
43.6000,1.171
43.6400,1.130
43.6800,1.110
43.7200,1.159
43.7600,1.218
43.8000,1.137
43.8400,1.152
43.8800,1.054
43.9200,1.150
43.9600,1.130
44.0000,1.141
44.0400,1.201
44.0800,1.137
44.1200,1.122
44.1600,1.182
44.2000,1.238
44.2400,1.198
44.2800,1.147
44.3200,1.204
44.3600,1.152
44.4000,1.234
44.4400,1.133
44.4800,1.173
44.5200,1.251
44.5600,1.145
44.6000,1.213
44.6400,1.161
44.6800,1.262
44.7200,1.231
44.7600,1.298
44.8000,1.224
44.8400,1.255
44.8800,1.319
44.9200,1.362
44.9600,1.342
45.0000,1.377
45.0400,1.459
45.0800,1.489
45.1200,1.609
45.1600,1.644
45.2000,1.741
45.2400,1.692
45.2800,1.916
45.3200,1.958
45.3600,2.170
45.4000,2.316
45.4400,2.559
45.4800,2.881
45.5200,3.063
45.5600,3.333
45.6000,3.569
45.6400,3.822
45.6800,3.905
45.7200,3.952
45.7600,3.963
45.8000,3.940
45.8400,3.746
45.8800,3.538
45.9200,3.380
45.9600,3.154
46.0000,2.763
46.0400,2.658
46.0800,2.423
46.1200,2.145
46.1600,1.912
46.2000,1.787
46.2400,1.624
46.2800,1.537
46.3200,1.496
46.3600,1.415
46.4000,1.297
46.4400,1.282
46.4800,1.200
46.5200,1.203
46.5600,1.127
46.6000,1.207
46.6400,1.133
46.6800,1.100
46.7200,1.091
46.7600,1.085
46.8000,1.025
46.8400,1.062
46.8800,1.048
46.9200,1.008
46.9600,1.065
47.0000,1.051
47.0400,1.009
47.0800,1.032
47.1200,1.042
47.1600,1.003
47.2000,0.976
47.2400,0.954
47.2800,0.954
47.3200,1.066
47.3600,0.950
47.4000,0.904
47.4400,0.994
47.4800,0.955
47.5200,0.947
47.5600,0.949
47.6000,0.959
47.6400,0.971
47.6800,0.935
47.7200,0.958
47.7600,0.956
47.8000,0.899
47.8400,0.900
47.8800,0.866
47.9200,0.932
47.9600,0.900
48.0000,0.852
48.0400,0.931
48.0800,0.921
48.1200,0.878
48.1600,0.883
48.2000,0.906
48.2400,0.879
48.2800,0.859
48.3200,0.913
48.3600,0.928
48.4000,0.848
48.4400,0.920
48.4800,0.938
48.5200,0.885
48.5600,0.884
48.6000,0.874
48.6400,0.865
48.6800,0.911
48.7200,0.835
48.7600,0.862
48.8000,0.871
48.8400,0.851
48.8800,0.832
48.9200,0.911
48.9600,0.881
49.0000,0.855
49.0400,0.832
49.0800,0.835
49.1200,0.853
49.1600,0.827
49.2000,0.845
49.2400,0.805
49.2800,0.792
49.3200,0.848
49.3600,0.829
49.4000,0.817
49.4400,0.858
49.4800,0.830
49.5200,0.822
49.5600,0.807
49.6000,0.865
49.6400,0.814
49.6800,0.854
49.7200,0.820
49.7600,0.831
49.8000,0.842
49.8400,0.856
49.8800,0.840
49.9200,0.816
49.9600,0.863
50.0000,0.827
50.0400,0.818
50.0800,0.849
50.1200,0.844
50.1600,0.879
50.2000,0.819
50.2400,0.833
50.2800,0.821
50.3200,0.810
50.3600,0.818
50.4000,0.790
50.4400,0.825
50.4800,0.788
50.5200,0.833
50.5600,0.817
50.6000,0.851
50.6400,0.826
50.6800,0.835
50.7200,0.793
50.7600,0.830
50.8000,0.815
50.8400,0.798
50.8800,0.811
50.9200,0.774
50.9600,0.793
51.0000,0.821
51.0400,0.808
51.0800,0.821
51.1200,0.813
51.1600,0.857
51.2000,0.828
51.2400,0.778
51.2800,0.800
51.3200,0.816
51.3600,0.866
51.4000,0.897
51.4400,0.895
51.4800,0.860
51.5200,0.868
51.5600,0.848
51.6000,0.855
51.6400,0.837
51.6800,0.865
51.7200,0.825
51.7600,0.824
51.8000,0.827
51.8400,0.788
51.8800,0.796
51.9200,0.844
51.9600,0.864
52.0000,0.783
52.0400,0.789
52.0800,0.757
52.1200,0.794
52.1600,0.746
52.2000,0.732
52.2400,0.755
52.2800,0.781
52.3200,0.777
52.3600,0.754
52.4000,0.746
52.4400,0.733
52.4800,0.794
52.5200,0.773
52.5600,0.748
52.6000,0.776
52.6400,0.742
52.6800,0.738
52.7200,0.770
52.7600,0.827
52.8000,0.761
52.8400,0.789
52.8800,0.810
52.9200,0.718
52.9600,0.737
53.0000,0.753
53.0400,0.764
53.0800,0.777
53.1200,0.722
53.1600,0.737
53.2000,0.749
53.2400,0.785
53.2800,0.770
53.3200,0.775
53.3600,0.699
53.4000,0.726
53.4400,0.714
53.4800,0.760
53.5200,0.733
53.5600,0.700
53.6000,0.703
53.6400,0.735
53.6800,0.688
53.7200,0.750
53.7600,0.772
53.8000,0.725
53.8400,0.799
53.8800,0.761
53.9200,0.683
53.9600,0.739
54.0000,0.695
54.0400,0.781
54.0800,0.695
54.1200,0.744
54.1600,0.743
54.2000,0.772
54.2400,0.743
54.2800,0.717
54.3200,0.727
54.3600,0.728
54.4000,0.656
54.4400,0.699
54.4800,0.695
54.5200,0.740
54.5600,0.733
54.6000,0.687
54.6400,0.681
54.6800,0.702
54.7200,0.689
54.7600,0.720
54.8000,0.703
54.8400,0.733
54.8800,0.673
54.9200,0.711
54.9600,0.657
55.0000,0.638
55.0400,0.683
55.0800,0.688
55.1200,0.660
55.1600,0.664
55.2000,0.672
55.2400,0.719
55.2800,0.706
55.3200,0.691
55.3600,0.715
55.4000,0.652
55.4400,0.618
55.4800,0.644
55.5200,0.679
55.5600,0.684
55.6000,0.630
55.6400,0.689
55.6800,0.670
55.7200,0.661
55.7600,0.675
55.8000,0.666
55.8400,0.683
55.8800,0.688
55.9200,0.699
55.9600,0.703
56.0000,0.673
56.0400,0.675
56.0800,0.664
56.1200,0.644
56.1600,0.639
56.2000,0.669
56.2400,0.656
56.2800,0.636
56.3200,0.693
56.3600,0.693
56.4000,0.659
56.4400,0.662
56.4800,0.690
56.5200,0.693
56.5600,0.652
56.6000,0.690
56.6400,0.647
56.6800,0.713
56.7200,0.698
56.7600,0.665
56.8000,0.672
56.8400,0.710
56.8800,0.730
56.9200,0.670
56.9600,0.700
57.0000,0.719
57.0400,0.692
57.0800,0.722
57.1200,0.733
57.1600,0.698
57.2000,0.692
57.2400,0.711
57.2800,0.690
57.3200,0.684
57.3600,0.723
57.4000,0.646
57.4400,0.700
57.4800,0.668
57.5200,0.664
57.5600,0.637
57.6000,0.636
57.6400,0.652
57.6800,0.689
57.7200,0.640
57.7600,0.623
57.8000,0.620
57.8400,0.654
57.8800,0.616
57.9200,0.617
57.9600,0.666
58.0000,0.624
58.0400,0.646
58.0800,0.620
58.1200,0.600
58.1600,0.625
58.2000,0.613
58.2400,0.605
58.2800,0.619
58.3200,0.655
58.3600,0.661
58.4000,0.675
58.4400,0.622
58.4800,0.646
58.5200,0.651
58.5600,0.599
58.6000,0.623
58.6400,0.590
58.6800,0.645
58.7200,0.660
58.7600,0.649
58.8000,0.614
58.8400,0.622
58.8800,0.615
58.9200,0.619
58.9600,0.648
59.0000,0.607
59.0400,0.611
59.0800,0.649
59.1200,0.622
59.1600,0.612
59.2000,0.615
59.2400,0.637
59.2800,0.643
59.3200,0.622
59.3600,0.615
59.4000,0.639
59.4400,0.630
59.4800,0.624
59.5200,0.601
59.5600,0.604
59.6000,0.605
59.6400,0.652
59.6800,0.597
59.7200,0.580
59.7600,0.597
59.8000,0.611
59.8400,0.617
59.8800,0.617
59.9200,0.625
59.9600,0.616
60.0000,0.594
60.0400,0.621
60.0800,0.604
60.1200,0.601
60.1600,0.587
60.2000,0.608
60.2400,0.599
60.2800,0.630
60.3200,0.593
60.3600,0.618
60.4000,0.563
60.4400,0.590
60.4800,0.550
60.5200,0.586
60.5600,0.608
60.6000,0.588
60.6400,0.600
60.6800,0.597
60.7200,0.557
60.7600,0.577
60.8000,0.546
60.8400,0.615
60.8800,0.574
60.9200,0.577
60.9600,0.581
61.0000,0.581
61.0400,0.565
61.0800,0.558
61.1200,0.569
61.1600,0.599
61.2000,0.586
61.2400,0.581
61.2800,0.578
61.3200,0.558
61.3600,0.537
61.4000,0.599
61.4400,0.571
61.4800,0.539
61.5200,0.569
61.5600,0.600
61.6000,0.593
61.6400,0.730
61.6800,0.668
61.7200,0.606
61.7600,0.575
61.8000,0.562
61.8400,0.588
61.8800,0.577
61.9200,0.573
61.9600,0.571
62.0000,0.542
62.0400,0.569
62.0800,0.551
62.1200,0.505
62.1600,0.581
62.2000,0.563
62.2400,0.516
62.2800,0.579
62.3200,0.551
62.3600,0.569
