theta,intensity
5.0000,4.301
5.0400,4.175
5.0800,4.306
5.1200,4.339
5.1600,4.348
5.2000,4.370
5.2400,4.336
5.2800,4.330
5.3200,4.280
5.3600,4.141
5.4000,4.276
5.4400,4.279
5.4800,4.259
5.5200,4.265
5.5600,4.165
5.6000,4.271
5.6400,4.237
5.6800,4.269
5.7200,4.219
5.7600,4.181
5.8000,4.049
5.8400,4.157
5.8800,4.091
5.9200,4.028
5.9600,3.910
6.0000,4.040
6.0400,4.023
6.0800,4.092
6.1200,4.056
6.1600,4.143
6.2000,4.001
6.2400,4.016
6.2800,4.041
6.3200,4.086
6.3600,3.991
6.4000,3.993
6.4400,3.935
6.4800,4.065
6.5200,4.018
6.5600,3.961
6.6000,3.942
6.6400,3.934
6.6800,4.028
6.7200,3.924
6.7600,4.013
6.8000,3.870
6.8400,3.964
6.8800,3.909
6.9200,3.953
6.9600,3.985
7.0000,3.946
7.0400,3.879
7.0800,3.929
7.1200,3.967
7.1600,3.953
7.2000,3.943
7.2400,3.801
7.2800,3.930
7.3200,3.930
7.3600,3.891
7.4000,3.894
7.4400,3.845
7.4800,3.887
7.5200,3.849
7.5600,3.852
7.6000,3.844
7.6400,3.784
7.6800,3.846
7.7200,3.862
7.7600,3.844
7.8000,3.882
7.8400,3.809
7.8800,3.814
7.9200,3.771
7.9600,3.755
8.0000,3.691
8.0400,3.895
8.0800,3.774
8.1200,3.804
8.1600,3.780
8.2000,3.730
8.2400,3.816
8.2800,3.755
8.3200,3.758
8.3600,3.741
8.4000,3.687
8.4400,3.660
8.4800,3.781
8.5200,3.761
8.5600,3.702
8.6000,3.618
8.6400,3.703
8.6800,3.748
8.7200,3.740
8.7600,3.757
8.8000,3.707
8.8400,3.693
8.8800,3.745
8.9200,3.734
8.9600,3.736
9.0000,3.714
9.0400,3.711
9.0800,3.760
9.1200,3.635
9.1600,3.729
9.2000,3.676
9.2400,3.686
9.2800,3.645
9.3200,3.700
9.3600,3.684
9.4000,3.628
9.4400,3.515
9.4800,3.668
9.5200,3.721
9.5600,3.546
9.6000,3.579
9.6400,3.480
9.6800,3.575
9.7200,3.538
9.7600,3.593
9.8000,3.535
9.8400,3.608
9.8800,3.593
9.9200,3.647
9.9600,3.602
10.0000,3.611
10.0400,3.684
10.0800,3.447
10.1200,3.579
10.1600,3.704
10.2000,3.571
10.2400,3.538
10.2800,3.535
10.3200,3.545
10.3600,3.588
10.4000,3.539
10.4400,3.578
10.4800,3.505
10.5200,3.547
10.5600,3.599
10.6000,3.438
10.6400,3.511
10.6800,3.506
10.7200,3.545
10.7600,3.513
10.8000,3.465
10.8400,3.482
10.8800,3.479
10.9200,3.485
10.9600,3.469
11.0000,3.428
11.0400,3.495
11.0800,3.493
11.1200,3.540
11.1600,3.431
11.2000,3.445
11.2400,3.419
11.2800,3.428
11.3200,3.485
11.3600,3.453
11.4000,3.398
11.4400,3.437
11.4800,3.383
11.5200,3.522
11.5600,3.525
11.6000,3.434
11.6400,3.510
11.6800,3.401
11.7200,3.436
11.7600,3.387
11.8000,3.411
11.8400,3.433
11.8800,3.403
11.9200,3.444
11.9600,3.390
12.0000,3.408
12.0400,3.436
12.0800,3.439
12.1200,3.368
12.1600,3.386
12.2000,3.259
12.2400,3.277
12.2800,3.292
12.3200,3.419
12.3600,3.305
12.4000,3.349
12.4400,3.401
12.4800,3.410
12.5200,3.347
12.5600,3.290
12.6000,3.341
12.6400,3.285
12.6800,3.255
12.7200,3.443
12.7600,3.375
12.8000,3.413
12.8400,3.272
12.8800,3.303
12.9200,3.328
12.9600,3.323
13.0000,3.354
13.0400,3.223
13.0800,3.266
13.1200,3.166
13.1600,3.389
13.2000,3.263
13.2400,3.312
13.2800,3.344
13.3200,3.368
13.3600,3.248
13.4000,3.233
13.4400,3.252
13.4800,3.211
13.5200,3.322
13.5600,3.249
13.6000,3.223
13.6400,3.315
13.6800,3.302
13.7200,3.306
13.7600,3.343
13.8000,3.234
13.8400,3.314
13.8800,3.215
13.9200,3.218
13.9600,3.241
14.0000,3.202
14.0400,3.121
14.0800,3.254
14.1200,3.180
14.1600,3.217
14.2000,3.184
14.2400,3.072
14.2800,3.191
14.3200,3.162
14.3600,3.148
14.4000,3.213
14.4400,3.249
14.4800,3.194
14.5200,3.192
14.5600,3.118
14.6000,3.166
14.6400,3.183
14.6800,3.132
14.7200,3.135
14.7600,3.171
14.8000,3.162
14.8400,3.150
14.8800,3.133
14.9200,3.156
14.9600,3.132
15.0000,3.174
15.0400,3.041
15.0800,3.054
15.1200,3.054
15.1600,3.180
15.2000,3.125
15.2400,3.077
15.2800,3.126
15.3200,3.057
15.3600,3.081
15.4000,3.167
15.4400,3.047
15.4800,3.076
15.5200,2.991
15.5600,3.041
15.6000,3.057
15.6400,3.041
15.6800,3.010
15.7200,3.054
15.7600,3.119
15.8000,3.157
15.8400,3.113
15.8800,2.930
15.9200,3.043
15.9600,3.013
16.0000,3.103
16.0400,3.090
16.0800,3.140
16.1200,3.020
16.1600,3.045
16.2000,2.979
16.2400,2.897
16.2800,3.018
16.3200,2.919
16.3600,2.948
16.4000,3.020
16.4400,3.032
16.4800,3.098
16.5200,3.001
16.5600,2.982
16.6000,2.922
16.6400,2.903
16.6800,2.922
16.7200,2.938
16.7600,2.990
16.8000,2.929
16.8400,3.023
16.8800,2.845
16.9200,2.939
16.9600,2.978
17.0000,2.898
17.0400,2.998
17.0800,3.016
17.1200,2.932
17.1600,2.840
17.2000,2.980
17.2400,2.909
17.2800,2.931
17.3200,2.987
17.3600,2.877
17.4000,2.901
17.4400,2.887
17.4800,2.942
17.5200,2.976
17.5600,2.954
17.6000,2.919
17.6400,2.892
17.6800,2.927
17.7200,2.741
17.7600,2.924
17.8000,2.808
17.8400,2.911
17.8800,2.856
17.9200,2.807
17.9600,2.932
18.0000,2.802
18.0400,2.859
18.0800,2.950
18.1200,2.859
18.1600,2.833
18.2000,2.828
18.2400,2.813
18.2800,2.849
18.3200,2.839
18.3600,2.816
18.4000,2.721
18.4400,2.832
18.4800,2.835
18.5200,2.880
18.5600,2.795
18.6000,2.759
18.6400,2.834
18.6800,2.874
18.7200,2.760
18.7600,2.747
18.8000,2.787
18.8400,2.842
18.8800,2.750
18.9200,2.750
18.9600,2.747
19.0000,2.851
19.0400,2.776
19.0800,2.762
19.1200,2.825
19.1600,2.744
19.2000,2.746
19.2400,2.780
19.2800,2.680
19.3200,2.747
19.3600,2.636
19.4000,2.762
19.4400,2.784
19.4800,2.737
19.5200,2.812
19.5600,2.692
19.6000,2.672
19.6400,2.717
19.6800,2.717
19.7200,2.728
19.7600,2.744
19.8000,2.611
19.8400,2.650
19.8800,2.770
19.9200,2.649
19.9600,2.704
20.0000,2.666
20.0400,2.697
20.0800,2.711
20.1200,2.651
20.1600,2.714
20.2000,2.710
20.2400,2.614
20.2800,2.591
20.3200,2.566
20.3600,2.669
20.4000,2.699
20.4400,2.584
20.4800,2.643
20.5200,2.582
20.5600,2.657
20.6000,2.643
20.6400,2.649
20.6800,2.582
20.7200,2.676
20.7600,2.643
20.8000,2.650
20.8400,2.592
20.8800,2.557
20.9200,2.551
20.9600,2.602
21.0000,2.572
21.0400,2.607
21.0800,2.597
21.1200,2.617
21.1600,2.641
21.2000,2.591
21.2400,2.539
21.2800,2.586
21.3200,2.566
21.3600,2.538
21.4000,2.663
21.4400,2.659
21.4800,2.569
21.5200,2.519
21.5600,2.561
21.6000,2.554
21.6400,2.485
21.6800,2.554
21.7200,2.576
21.7600,2.578
21.8000,2.576
21.8400,2.606
21.8800,2.637
21.9200,2.605
21.9600,2.607
22.0000,2.488
22.0400,2.506
22.0800,2.425
22.1200,2.539
22.1600,2.448
22.2000,2.541
22.2400,2.409
22.2800,2.428
22.3200,2.419
22.3600,2.471
22.4000,2.389
22.4400,2.458
22.4800,2.419
22.5200,2.479
22.5600,2.399
22.6000,2.450
22.6400,2.509
22.6800,2.401
22.7200,2.443
22.7600,2.402
22.8000,2.487
22.8400,2.344
22.8800,2.457
22.9200,2.441
22.9600,2.407
23.0000,2.404
23.0400,2.434
23.0800,2.361
23.1200,2.390
23.1600,2.472
23.2000,2.444
23.2400,2.431
23.2800,2.311
23.3200,2.393
23.3600,2.406
23.4000,2.340
23.4400,2.311
23.4800,2.372
23.5200,2.411
23.5600,2.357
23.6000,2.407
23.6400,2.294
23.6800,2.341
23.7200,2.320
23.7600,2.391
23.8000,2.309
23.8400,2.371
23.8800,2.380
23.9200,2.349
23.9600,2.309
24.0000,2.330
24.0400,2.285
24.0800,2.335
24.1200,2.273
24.1600,2.249
24.2000,2.315
24.2400,2.328
24.2800,2.351
24.3200,2.312
24.3600,2.295
24.4000,2.247
24.4400,2.254
24.4800,2.274
24.5200,2.253
24.5600,2.235
24.6000,2.321
24.6400,2.225
24.6800,2.267
24.7200,2.267
24.7600,2.275
24.8000,2.219
24.8400,2.272
24.8800,2.283
24.9200,2.213
24.9600,2.139
25.0000,2.183
25.0400,2.207
25.0800,2.158
25.1200,2.181
25.1600,2.175
25.2000,2.246
25.2400,2.182
25.2800,2.161
25.3200,2.077
25.3600,2.207
25.4000,2.255
25.4400,2.180
25.4800,2.134
25.5200,2.213
25.5600,2.180
25.6000,2.223
25.6400,2.123
25.6800,2.159
25.7200,2.206
25.7600,2.144
25.8000,2.227
25.8400,2.157
25.8800,2.197
25.9200,2.196
25.9600,2.147
26.0000,2.112
26.0400,2.142
26.0800,2.126
26.1200,2.122
26.1600,2.160
26.2000,2.131
26.2400,2.177
26.2800,2.159
26.3200,2.044
26.3600,2.128
26.4000,2.089
26.4400,2.135
26.4800,2.079
26.5200,2.132
26.5600,2.054
26.6000,2.170
26.6400,2.123
26.6800,1.996
26.7200,2.075
26.7600,2.103
26.8000,2.152
26.8400,2.053
26.8800,2.127
26.9200,2.085
26.9600,2.074
27.0000,2.006
27.0400,2.053
27.0800,2.101
27.1200,2.076
27.1600,2.059
27.2000,2.087
27.2400,2.102
27.2800,2.073
27.3200,1.991
27.3600,2.034
27.4000,2.006
27.4400,2.049
27.4800,2.153
27.5200,1.993
27.5600,1.989
27.6000,2.076
27.6400,2.032
27.6800,1.967
27.7200,1.988
27.7600,2.037
27.8000,1.974
27.8400,2.011
27.8800,1.965
27.9200,1.929
27.9600,2.029
28.0000,2.028
28.0400,1.957
28.0800,1.973
28.1200,1.996
28.1600,1.940
28.2000,1.965
28.2400,1.899
28.2800,1.922
28.3200,1.943
28.3600,1.971
28.4000,1.944
28.4400,2.003
28.4800,1.918
28.5200,1.948
28.5600,1.966
28.6000,1.960
28.6400,2.023
28.6800,1.973
28.7200,1.957
28.7600,1.905
28.8000,1.840
28.8400,1.904
28.8800,1.924
28.9200,1.860
28.9600,1.916
29.0000,1.932
29.0400,1.911
29.0800,1.898
29.1200,1.931
29.1600,2.006
29.2000,1.986
29.2400,1.895
29.2800,1.939
29.3200,1.949
29.3600,1.965
29.4000,1.950
29.4400,1.945
29.4800,1.910
29.5200,1.910
29.5600,1.814
29.6000,1.915
29.6400,1.874
29.6800,1.887
29.7200,1.971
29.7600,1.922
29.8000,1.926
29.8400,1.927
29.8800,1.920
29.9200,1.900
29.9600,2.058
30.0000,2.064
30.0400,2.046
30.0800,1.967
30.1200,1.946
30.1600,1.958
30.2000,2.059
30.2400,2.119
30.2800,2.119
30.3200,2.184
30.3600,2.189
30.4000,2.227
30.4400,2.314
30.4800,2.298
30.5200,2.336
30.5600,2.449
30.6000,2.404
30.6400,2.428
30.6800,2.506
30.7200,2.444
30.7600,2.415
30.8000,2.404
30.8400,2.365
30.8800,2.315
30.9200,2.234
30.9600,2.124
31.0000,2.114
31.0400,2.091
31.0800,2.015
31.1200,2.056
31.1600,1.950
31.2000,1.954
31.2400,1.835
31.2800,1.890
31.3200,1.963
31.3600,1.928
31.4000,1.812
31.4400,1.858
31.4800,1.794
31.5200,1.829
31.5600,1.763
31.6000,1.799
31.6400,1.710
31.6800,1.781
31.7200,1.790
31.7600,1.762
31.8000,1.714
31.8400,1.713
31.8800,1.740
31.9200,1.811
31.9600,1.813
32.0000,1.718
32.0400,1.705
32.0800,1.771
32.1200,1.725
32.1600,1.731
32.2000,1.706
32.2400,1.703
32.2800,1.695
32.3200,1.734
32.3600,1.698
32.4000,1.724
32.4400,1.660
32.4800,1.696
32.5200,1.636
32.5600,1.633
32.6000,1.643
32.6400,1.611
32.6800,1.655
32.7200,1.690
32.7600,1.622
32.8000,1.673
32.8400,1.641
32.8800,1.573
32.9200,1.627
32.9600,1.627
33.0000,1.636
33.0400,1.687
33.0800,1.679
33.1200,1.654
33.1600,1.649
33.2000,1.617
33.2400,1.590
33.2800,1.630
33.3200,1.617
33.3600,1.686
33.4000,1.666
33.4400,1.615
33.4800,1.609
33.5200,1.611
33.5600,1.617
33.6000,1.613
33.6400,1.648
33.6800,1.576
33.7200,1.651
33.7600,1.572
33.8000,1.526
33.8400,1.592
33.8800,1.535
33.9200,1.638
33.9600,1.632
34.0000,1.585
34.0400,1.561
34.0800,1.612
34.1200,1.528
34.1600,1.549
34.2000,1.490
34.2400,1.586
34.2800,1.581
34.3200,1.533
34.3600,1.535
34.4000,1.598
34.4400,1.629
34.4800,1.545
34.5200,1.494
34.5600,1.554
34.6000,1.524
34.6400,1.533
34.6800,1.503
34.7200,1.573
34.7600,1.612
34.8000,1.563
34.8400,1.595
34.8800,1.619
34.9200,1.582
34.9600,1.532
35.0000,1.583
35.0400,1.584
35.0800,1.590
35.1200,1.609
35.1600,1.667
35.2000,1.629
35.2400,1.650
35.2800,1.709
35.3200,1.614
35.3600,1.763
35.4000,1.694
35.4400,1.720
35.4800,1.773
35.5200,1.769
35.5600,1.804
35.6000,1.856
35.6400,1.769
35.6800,1.898
35.7200,1.914
35.7600,1.949
35.8000,2.038
35.8400,2.126
35.8800,2.215
35.9200,2.231
35.9600,2.148
36.0000,2.242
36.0400,2.241
36.0800,2.242
36.1200,2.241
36.1600,2.132
36.2000,2.187
36.2400,2.117
36.2800,1.938
36.3200,1.953
36.3600,1.892
36.4000,1.930
36.4400,1.903
36.4800,1.761
36.5200,1.787
36.5600,1.820
36.6000,1.765
36.6400,1.819
36.6800,1.752
36.7200,1.827
36.7600,1.784
36.8000,1.790
36.8400,1.793
36.8800,1.851
36.9200,1.849
36.9600,1.782
37.0000,1.757
37.0400,1.814
37.0800,1.865
37.1200,1.845
37.1600,1.944
37.2000,1.848
37.2400,1.900
37.2800,1.903
37.3200,2.012
37.3600,1.978
37.4000,2.140
37.4400,2.155
37.4800,2.163
37.5200,2.263
37.5600,2.405
37.6000,2.590
37.6400,2.787
37.6800,3.141
37.7200,3.424
37.7600,3.783
37.8000,4.284
37.8400,4.691
37.8800,4.830
37.9200,5.309
37.9600,5.365
38.0000,5.596
38.0400,5.772
38.0800,5.810
38.1200,5.751
38.1600,5.753
38.2000,5.473
38.2400,5.276
38.2800,4.822
38.3200,4.431
38.3600,4.238
38.4000,3.805
38.4400,3.514
38.4800,3.251
38.5200,3.018
38.5600,2.801
38.6000,2.620
38.6400,2.621
38.6800,2.445
38.7200,2.288
38.7600,2.290
38.8000,2.220
38.8400,2.168
38.8800,2.058
38.9200,2.058
38.9600,2.007
39.0000,1.981
39.0400,2.008
39.0800,1.948
39.1200,1.941
39.1600,1.885
39.2000,1.903
39.2400,1.900
39.2800,1.830
39.3200,1.882
39.3600,1.816
39.4000,1.816
39.4400,1.860
39.4800,1.877
39.5200,1.825
39.5600,1.900
39.6000,1.909
39.6400,1.878
39.6800,1.892
39.7200,2.002
39.7600,1.981
39.8000,2.062
39.8400,2.043
39.8800,2.066
39.9200,2.106
39.9600,2.059
40.0000,2.109
40.0400,2.107
40.0800,2.116
40.1200,2.093
40.1600,2.104
40.2000,2.119
40.2400,2.074
40.2800,2.125
40.3200,2.118
40.3600,2.093
40.4000,2.159
40.4400,2.171
40.4800,2.130
40.5200,2.180
40.5600,2.175
40.6000,2.244
40.6400,2.186
40.6800,2.210
40.7200,2.195
40.7600,2.162
40.8000,2.205
40.8400,2.271
40.8800,2.201
40.9200,2.136
40.9600,2.127
41.0000,2.039
41.0400,2.092
41.0800,2.089
41.1200,2.013
41.1600,1.924
41.2000,1.925
41.2400,1.862
41.2800,1.923
41.3200,1.924
41.3600,1.808
41.4000,1.847
41.4400,1.848
41.4800,1.796
41.5200,1.771
41.5600,1.733
41.6000,1.768
41.6400,1.845
41.6800,1.797
41.7200,1.763
41.7600,1.839
41.8000,1.665
41.8400,1.653
41.8800,1.606
41.9200,1.658
41.9600,1.668
42.0000,1.655
42.0400,1.536
42.0800,1.583
42.1200,1.505
42.1600,1.495
42.2000,1.487
42.2400,1.483
42.2800,1.438
42.3200,1.451
42.3600,1.383
42.4000,1.406
42.4400,1.398
42.4800,1.339
42.5200,1.404
42.5600,1.395
42.6000,1.353
42.6400,1.313
42.6800,1.313
42.7200,1.338
42.7600,1.413
42.8000,1.326
42.8400,1.298
42.8800,1.328
42.9200,1.273
42.9600,1.396
43.0000,1.327
43.0400,1.304
43.0800,1.320
43.1200,1.346
43.1600,1.273
43.2000,1.296
43.2400,1.314
43.2800,1.324
43.3200,1.322
43.3600,1.348
43.4000,1.313
43.4400,1.339
43.4800,1.336
43.5200,1.381
43.5600,1.380
43.6000,1.380
43.6400,1.417
43.6800,1.394
43.7200,1.432
43.7600,1.491
43.8000,1.470
43.8400,1.449
43.8800,1.499
43.9200,1.552
43.9600,1.583
44.0000,1.607
44.0400,1.647
44.0800,1.614
44.1200,1.746
44.1600,1.661
44.2000,1.762
44.2400,1.827
44.2800,1.917
44.3200,1.796
44.3600,1.746
44.4000,1.728
44.4400,1.732
44.4800,1.775
44.5200,1.735
44.5600,1.668
44.6000,1.618
44.6400,1.554
44.6800,1.563
44.7200,1.471
44.7600,1.375
44.8000,1.363
44.8400,1.412
44.8800,1.291
44.9200,1.344
44.9600,1.273
45.0000,1.287
45.0400,1.226
45.0800,1.221
45.1200,1.244
45.1600,1.181
45.2000,1.244
45.2400,1.207
45.2800,1.151
45.3200,1.164
45.3600,1.163
45.4000,1.135
45.4400,1.143
45.4800,1.127
45.5200,1.129
45.5600,1.103
45.6000,1.091
45.6400,1.143
45.6800,1.136
45.7200,1.111
45.7600,1.134
45.8000,1.101
45.8400,1.090
45.8800,1.026
45.9200,1.096
45.9600,1.053
46.0000,1.049
46.0400,1.045
46.0800,1.049
46.1200,1.027
46.1600,1.020
46.2000,1.016
46.2400,1.017
46.2800,1.006
46.3200,0.983
46.3600,1.000
46.4000,0.986
46.4400,0.926
46.4800,0.994
46.5200,0.934
46.5600,0.989
46.6000,0.993
46.6400,0.956
46.6800,0.955
46.7200,0.947
46.7600,0.970
46.8000,0.916
46.8400,0.908
46.8800,0.951
46.9200,0.930
46.9600,0.986
47.0000,0.946
47.0400,0.982
47.0800,0.944
47.1200,0.949
47.1600,0.945
47.2000,0.914
47.2400,0.966
47.2800,0.948
47.3200,0.886
47.3600,0.915
47.4000,0.927
47.4400,0.942
47.4800,0.936
47.5200,0.922
47.5600,0.946
47.6000,0.908
47.6400,0.941
47.6800,0.900
47.7200,0.935
47.7600,0.906
47.8000,0.859
47.8400,0.899
47.8800,0.901
47.9200,0.915
47.9600,0.948
48.0000,0.825
48.0400,0.875
48.0800,0.862
48.1200,0.883
48.1600,0.863
48.2000,0.916
48.2400,0.917
48.2800,0.884
48.3200,0.920
48.3600,0.841
48.4000,0.879
48.4400,0.861
48.4800,0.820
48.5200,0.895
48.5600,0.827
48.6000,0.890
48.6400,0.865
48.6800,0.865
48.7200,0.859
48.7600,0.882
48.8000,0.831
48.8400,0.922
48.8800,0.885
48.9200,0.869
48.9600,0.832
49.0000,0.902
49.0400,0.892
49.0800,0.916
49.1200,0.912
49.1600,0.938
49.2000,0.827
49.2400,0.855
49.2800,0.908
49.3200,0.874
49.3600,0.842
49.4000,0.879
49.4400,0.876
49.4800,0.884
49.5200,0.865
49.5600,0.872
49.6000,0.862
49.6400,0.872
49.6800,0.838
49.7200,0.833
49.7600,0.880
49.8000,0.901
49.8400,0.894
49.8800,0.837
49.9200,0.934
49.9600,0.875
50.0000,0.846
50.0400,0.881
50.0800,0.869
50.1200,0.868
50.1600,0.947
50.2000,0.865
50.2400,0.865
50.2800,0.874
50.3200,0.854
50.3600,0.864
50.4000,0.900
50.4400,0.872
50.4800,0.912
50.5200,0.897
50.5600,0.865
50.6000,0.878
50.6400,0.905
50.6800,0.902
50.7200,0.935
50.7600,0.929
50.8000,0.893
50.8400,0.979
50.8800,0.932
50.9200,0.983
50.9600,0.936
51.0000,0.901
51.0400,0.998
51.0800,0.996
51.1200,0.962
51.1600,0.980
51.2000,1.033
51.2400,1.010
51.2800,0.977
51.3200,0.942
51.3600,0.924
51.4000,0.924
51.4400,0.845
51.4800,0.848
51.5200,0.881
51.5600,0.851
51.6000,0.816
51.6400,0.883
51.6800,0.853
51.7200,0.852
51.7600,0.822
51.8000,0.830
51.8400,0.807
51.8800,0.804
51.9200,0.792
51.9600,0.807
52.0000,0.828
52.0400,0.769
52.0800,0.826
52.1200,0.790
52.1600,0.739
52.2000,0.836
52.2400,0.831
52.2800,0.821
52.3200,0.779
52.3600,0.792
52.4000,0.835
52.4400,0.735
52.4800,0.771
52.5200,0.806
52.5600,0.787
52.6000,0.815
52.6400,0.768
52.6800,0.769
52.7200,0.782
52.7600,0.781
52.8000,0.739
52.8400,0.759
52.8800,0.753
52.9200,0.786
52.9600,0.772
53.0000,0.795
53.0400,0.723
53.0800,0.798
53.1200,0.823
53.1600,0.782
53.2000,0.784
53.2400,0.694
53.2800,0.749
53.3200,0.744
53.3600,0.764
53.4000,0.720
53.4400,0.768
53.4800,0.792
53.5200,0.727
53.5600,0.764
53.6000,0.771
53.6400,0.722
53.6800,0.742
53.7200,0.739
53.7600,0.719
53.8000,0.778
53.8400,0.732
53.8800,0.730
53.9200,0.741
53.9600,0.715
54.0000,0.727
54.0400,0.690
54.0800,0.710
54.1200,0.724
54.1600,0.682
54.2000,0.691
54.2400,0.689
54.2800,0.721
54.3200,0.679
54.3600,0.712
54.4000,0.699
54.4400,0.729
54.4800,0.756
54.5200,0.764
54.5600,0.702
54.6000,0.722
54.6400,0.766
54.6800,0.667
54.7200,0.690
54.7600,0.725
54.8000,0.663
54.8400,0.698
54.8800,0.704
54.9200,0.659
54.9600,0.664
55.0000,0.718
55.0400,0.659
55.0800,0.681
55.1200,0.697
55.1600,0.673
55.2000,0.658
55.2400,0.693
55.2800,0.686
55.3200,0.681
55.3600,0.666
55.4000,0.673
55.4400,0.673
55.4800,0.666
55.5200,0.653
55.5600,0.672
55.6000,0.706
55.6400,0.652
55.6800,0.643
55.7200,0.666
55.7600,0.707
55.8000,0.635
55.8400,0.690
55.8800,0.636
55.9200,0.741
55.9600,0.687
56.0000,0.708
56.0400,0.703
56.0800,0.744
56.1200,0.688
56.1600,0.681
56.2000,0.717
56.2400,0.719
56.2800,0.684
56.3200,0.690
56.3600,0.703
56.4000,0.602
56.4400,0.642
56.4800,0.695
56.5200,0.682
56.5600,0.639
56.6000,0.658
56.6400,0.644
56.6800,0.625
56.7200,0.616
56.7600,0.669
56.8000,0.659
56.8400,0.687
56.8800,0.643
56.9200,0.673
56.9600,0.671
57.0000,0.649
57.0400,0.695
57.0800,0.696
57.1200,0.606
57.1600,0.672
57.2000,0.654
57.2400,0.646
57.2800,0.688
57.3200,0.665
57.3600,0.646
57.4000,0.657
57.4400,0.649
57.4800,0.646
57.5200,0.611
57.5600,0.648
57.6000,0.588
57.6400,0.635
57.6800,0.643
57.7200,0.602
57.7600,0.647
57.8000,0.623
57.8400,0.627
57.8800,0.641
57.9200,0.648
57.9600,0.599
58.0000,0.606
58.0400,0.629
58.0800,0.658
58.1200,0.659
58.1600,0.624
58.2000,0.617
58.2400,0.579
58.2800,0.615
58.3200,0.598
58.3600,0.656
58.4000,0.599
58.4400,0.626
58.4800,0.610
58.5200,0.635
58.5600,0.594
58.6000,0.582
58.6400,0.659
58.6800,0.610
58.7200,0.628
58.7600,0.635
58.8000,0.607
58.8400,0.665
58.8800,0.613
58.9200,0.589
58.9600,0.666
59.0000,0.642
59.0400,0.617
59.0800,0.622
59.1200,0.643
59.1600,0.603
59.2000,0.630
59.2400,0.647
59.2800,0.613
59.3200,0.623
59.3600,0.646
59.4000,0.618
59.4400,0.554
59.4800,0.591
59.5200,0.636
59.5600,0.598
59.6000,0.637
59.6400,0.607
59.6800,0.588
59.7200,0.621
59.7600,0.618
59.8000,0.643
59.8400,0.565
59.8800,0.601
59.9200,0.617
59.9600,0.596
60.0000,0.621
60.0400,0.625
60.0800,0.597
60.1200,0.642
60.1600,0.633
60.2000,0.612
60.2400,0.621
60.2800,0.635
60.3200,0.669
60.3600,0.687
60.4000,0.639
60.4400,0.707
60.4800,0.725
60.5200,0.707
60.5600,0.665
60.6000,0.674
60.6400,0.635
60.6800,0.689
60.7200,0.714
60.7600,0.748
60.8000,0.685
60.8400,0.664
60.8800,0.727
60.9200,0.686
60.9600,0.639
61.0000,0.682
61.0400,0.624
61.0800,0.619
61.1200,0.639
61.1600,0.689
61.2000,0.599
61.2400,0.636
61.2800,0.602
61.3200,0.611
61.3600,0.638
61.4000,0.615
61.4400,0.602
61.4800,0.600
61.5200,0.592
61.5600,0.597
61.6000,0.643
61.6400,0.563
61.6800,0.649
61.7200,0.619
61.7600,0.659
61.8000,0.692
61.8400,0.633
61.8800,0.597
61.9200,0.628
61.9600,0.582
62.0000,0.574
62.0400,0.589
62.0800,0.615
62.1200,0.609
62.1600,0.586
62.2000,0.589
62.2400,0.577
62.2800,0.574
62.3200,0.607
62.3600,0.597
62.4000,0.607
