theta,intensity
5.0000,7.079
5.0400,7.018
5.0800,7.011
5.1200,6.816
5.1600,6.846
5.2000,6.656
5.2400,6.550
5.2800,6.594
5.3200,6.469
5.3600,6.412
5.4000,6.174
5.4400,6.317
5.4800,6.108
5.5200,5.957
5.5600,5.837
5.6000,5.809
5.6400,5.651
5.6800,5.592
5.7200,5.439
5.7600,5.449
5.8000,5.364
5.8400,5.312
5.8800,5.146
5.9200,4.990
5.9600,5.068
6.0000,4.877
6.0400,4.884
6.0800,4.656
6.1200,4.582
6.1600,4.605
6.2000,4.514
6.2400,4.361
6.2800,4.227
6.3200,4.225
6.3600,4.308
6.4000,4.411
6.4400,4.354
6.4800,4.424
6.5200,4.179
6.5600,4.243
6.6000,4.176
6.6400,4.215
6.6800,4.154
6.7200,4.249
6.7600,4.132
6.8000,4.080
6.8400,4.070
6.8800,4.133
6.9200,4.192
6.9600,4.114
7.0000,4.105
7.0400,4.152
7.0800,4.109
7.1200,4.039
7.1600,4.151
7.2000,4.158
7.2400,4.065
7.2800,4.120
7.3200,4.007
7.3600,4.003
7.4000,3.927
7.4400,4.003
7.4800,4.049
7.5200,4.012
7.5600,3.873
7.6000,3.963
7.6400,4.047
7.6800,3.988
7.7200,3.951
7.7600,3.949
7.8000,4.042
7.8400,3.957
7.8800,3.920
7.9200,3.919
7.9600,3.881
8.0000,3.875
8.0400,3.890
8.0800,4.024
8.1200,3.872
8.1600,3.863
8.2000,3.922
8.2400,3.865
8.2800,3.941
8.3200,3.802
8.3600,3.995
8.4000,3.831
8.4400,3.828
8.4800,3.852
8.5200,3.848
8.5600,3.864
8.6000,3.752
8.6400,3.854
8.6800,3.848
8.7200,3.828
8.7600,3.845
8.8000,3.819
8.8400,3.914
8.8800,3.912
8.9200,3.912
8.9600,3.798
9.0000,3.757
9.0400,3.724
9.0800,3.853
9.1200,3.756
9.1600,3.853
9.2000,3.787
9.2400,3.784
9.2800,3.707
9.3200,3.844
9.3600,3.777
9.4000,3.860
9.4400,3.787
9.4800,3.629
9.5200,3.800
9.5600,3.745
9.6000,3.841
9.6400,3.743
9.6800,3.737
9.7200,3.744
9.7600,3.747
9.8000,3.657
9.8400,3.818
9.8800,3.646
9.9200,3.608
9.9600,3.687
10.0000,3.747
10.0400,3.735
10.0800,3.703
10.1200,3.729
10.1600,3.635
10.2000,3.700
10.2400,3.630
10.2800,3.666
10.3200,3.688
10.3600,3.548
10.4000,3.673
10.4400,3.618
10.4800,3.577
10.5200,3.578
10.5600,3.695
10.6000,3.593
10.6400,3.617
10.6800,3.615
10.7200,3.643
10.7600,3.650
10.8000,3.561
10.8400,3.490
10.8800,3.555
10.9200,3.486
10.9600,3.634
11.0000,3.520
11.0400,3.473
11.0800,3.556
11.1200,3.541
11.1600,3.407
11.2000,3.526
11.2400,3.566
11.2800,3.513
11.3200,3.456
11.3600,3.616
11.4000,3.549
11.4400,3.597
11.4800,3.672
11.5200,3.535
11.5600,3.539
11.6000,3.590
11.6400,3.536
11.6800,3.428
11.7200,3.512
11.7600,3.585
11.8000,3.505
11.8400,3.466
11.8800,3.473
11.9200,3.425
11.9600,3.453
12.0000,3.460
12.0400,3.486
12.0800,3.460
12.1200,3.416
12.1600,3.388
12.2000,3.340
12.2400,3.437
12.2800,3.566
12.3200,3.410
12.3600,3.371
12.4000,3.380
12.4400,3.448
12.4800,3.484
12.5200,3.390
12.5600,3.351
12.6000,3.471
12.6400,3.299
12.6800,3.355
12.7200,3.329
12.7600,3.387
12.8000,3.423
12.8400,3.310
12.8800,3.384
12.9200,3.379
12.9600,3.239
13.0000,3.401
13.0400,3.333
13.0800,3.217
13.1200,3.334
13.1600,3.362
13.2000,3.221
13.2400,3.305
13.2800,3.205
13.3200,3.297
13.3600,3.315
13.4000,3.317
13.4400,3.293
13.4800,3.286
13.5200,3.219
13.5600,3.394
13.6000,3.207
13.6400,3.177
13.6800,3.347
13.7200,3.305
13.7600,3.267
13.8000,3.306
13.8400,3.243
13.8800,3.237
13.9200,3.266
13.9600,3.333
14.0000,3.180
14.0400,3.285
14.0800,3.210
14.1200,3.253
14.1600,3.231
14.2000,3.303
14.2400,3.269
14.2800,3.232
14.3200,3.203
14.3600,3.223
14.4000,3.130
14.4400,3.251
14.4800,3.237
14.5200,3.280
14.5600,3.275
14.6000,3.175
14.6400,3.276
14.6800,3.145
14.7200,3.184
14.7600,3.160
14.8000,3.201
14.8400,3.149
14.8800,3.168
14.9200,3.126
14.9600,3.228
15.0000,3.201
15.0400,3.179
15.0800,3.017
15.1200,3.211
15.1600,3.135
15.2000,3.155
15.2400,3.052
15.2800,3.067
15.3200,3.198
15.3600,3.142
15.4000,3.165
15.4400,3.155
15.4800,3.108
15.5200,3.137
15.5600,3.171
15.6000,2.962
15.6400,3.023
15.6800,3.049
15.7200,3.020
15.7600,3.080
15.8000,3.142
15.8400,3.038
15.8800,3.094
15.9200,3.065
15.9600,3.026
16.0000,2.999
16.0400,3.112
16.0800,3.093
16.1200,3.091
16.1600,3.010
16.2000,3.090
16.2400,3.041
16.2800,3.064
16.3200,3.028
16.3600,3.190
16.4000,3.068
16.4400,2.967
16.4800,2.995
16.5200,3.007
16.5600,3.006
16.6000,2.918
16.6400,3.015
16.6800,2.976
16.7200,2.991
16.7600,3.007
16.8000,3.024
16.8400,2.967
16.8800,2.951
16.9200,2.916
16.9600,3.066
17.0000,2.929
17.0400,2.892
17.0800,2.991
17.1200,3.008
17.1600,2.885
17.2000,2.935
17.2400,2.947
17.2800,2.902
17.3200,2.915
17.3600,2.966
17.4000,2.897
17.4400,3.004
17.4800,2.889
17.5200,2.903
17.5600,2.845
17.6000,2.887
17.6400,2.931
17.6800,2.894
17.7200,2.942
17.7600,2.941
17.8000,2.883
17.8400,2.887
17.8800,2.883
17.9200,2.803
17.9600,2.836
18.0000,2.849
18.0400,2.867
18.0800,2.848
18.1200,2.789
18.1600,2.949
18.2000,2.790
18.2400,2.890
18.2800,2.766
18.3200,2.749
18.3600,2.753
18.4000,2.746
18.4400,2.788
18.4800,2.801
18.5200,2.738
18.5600,2.915
18.6000,2.899
18.6400,2.831
18.6800,2.819
18.7200,2.804
18.7600,2.811
18.8000,2.712
18.8400,2.750
18.8800,2.726
18.9200,2.806
18.9600,2.840
19.0000,2.766
19.0400,2.777
19.0800,2.756
19.1200,2.721
19.1600,2.747
19.2000,2.750
19.2400,2.704
19.2800,2.765
19.3200,2.663
19.3600,2.765
19.4000,2.720
19.4400,2.688
19.4800,2.628
19.5200,2.801
19.5600,2.713
19.6000,2.749
19.6400,2.750
19.6800,2.708
19.7200,2.830
19.7600,2.700
19.8000,2.737
19.8400,2.708
19.8800,2.635
19.9200,2.698
19.9600,2.662
20.0000,2.655
20.0400,2.729
20.0800,2.677
20.1200,2.663
20.1600,2.708
20.2000,2.648
20.2400,2.644
20.2800,2.692
20.3200,2.658
20.3600,2.647
20.4000,2.627
20.4400,2.638
20.4800,2.625
20.5200,2.589
20.5600,2.598
20.6000,2.636
20.6400,2.560
20.6800,2.576
20.7200,2.608
20.7600,2.487
20.8000,2.514
20.8400,2.600
20.8800,2.628
20.9200,2.624
20.9600,2.638
21.0000,2.569
21.0400,2.593
21.0800,2.619
21.1200,2.631
21.1600,2.614
21.2000,2.603
21.2400,2.528
21.2800,2.585
21.3200,2.525
21.3600,2.556
21.4000,2.513
21.4400,2.626
21.4800,2.510
21.5200,2.487
21.5600,2.503
21.6000,2.494
21.6400,2.503
21.6800,2.473
21.7200,2.544
21.7600,2.475
21.8000,2.542
21.8400,2.555
21.8800,2.523
21.9200,2.523
21.9600,2.498
22.0000,2.473
22.0400,2.503
22.0800,2.447
22.1200,2.469
22.1600,2.454
22.2000,2.561
22.2400,2.610
22.2800,2.559
22.3200,2.435
22.3600,2.432
22.4000,2.510
22.4400,2.471
22.4800,2.398
22.5200,2.521
22.5600,2.464
22.6000,2.390
22.6400,2.442
22.6800,2.426
22.7200,2.375
22.7600,2.454
22.8000,2.461
22.8400,2.413
22.8800,2.473
22.9200,2.361
22.9600,2.385
23.0000,2.448
23.0400,2.404
23.0800,2.436
23.1200,2.422
23.1600,2.365
23.2000,2.422
23.2400,2.411
23.2800,2.416
23.3200,2.412
23.3600,2.422
23.4000,2.401
23.4400,2.347
23.4800,2.380
23.5200,2.433
23.5600,2.298
23.6000,2.416
23.6400,2.333
23.6800,2.328
23.7200,2.345
23.7600,2.302
23.8000,2.329
23.8400,2.345
23.8800,2.363
23.9200,2.288
23.9600,2.313
24.0000,2.312
24.0400,2.297
24.0800,2.288
24.1200,2.238
24.1600,2.306
24.2000,2.242
24.2400,2.240
24.2800,2.286
24.3200,2.341
24.3600,2.285
24.4000,2.282
24.4400,2.334
24.4800,2.241
24.5200,2.297
24.5600,2.316
24.6000,2.331
24.6400,2.252
24.6800,2.213
24.7200,2.341
24.7600,2.259
24.8000,2.301
24.8400,2.205
24.8800,2.311
24.9200,2.187
24.9600,2.362
25.0000,2.204
25.0400,2.236
25.0800,2.241
25.1200,2.217
25.1600,2.139
25.2000,2.189
25.2400,2.208
25.2800,2.169
25.3200,2.172
25.3600,2.246
25.4000,2.169
25.4400,2.193
25.4800,2.124
25.5200,2.264
25.5600,2.208
25.6000,2.197
25.6400,2.248
25.6800,2.193
25.7200,2.143
25.7600,2.123
25.8000,2.173
25.8400,2.171
25.8800,2.226
25.9200,2.143
25.9600,2.162
26.0000,2.198
26.0400,2.177
26.0800,2.207
26.1200,2.174
26.1600,2.132
26.2000,2.094
26.2400,2.185
26.2800,2.028
26.3200,2.042
26.3600,2.212
26.4000,2.134
26.4400,2.064
26.4800,2.071
26.5200,2.059
26.5600,2.116
26.6000,2.089
26.6400,2.127
26.6800,2.102
26.7200,2.110
26.7600,2.081
26.8000,2.173
26.8400,2.160
26.8800,2.016
26.9200,2.124
26.9600,2.134
27.0000,2.068
27.0400,2.085
27.0800,2.071
27.1200,2.073
27.1600,2.100
27.2000,2.103
27.2400,2.142
27.2800,2.060
27.3200,2.022
27.3600,2.021
27.4000,2.047
27.4400,2.055
27.4800,2.000
27.5200,2.000
27.5600,1.975
27.6000,1.992
27.6400,1.987
27.6800,2.045
27.7200,2.062
27.7600,2.069
27.8000,2.040
27.8400,2.000
27.8800,2.103
27.9200,2.006
27.9600,2.039
28.0000,1.924
28.0400,2.001
28.0800,2.016
28.1200,2.036
28.1600,1.986
28.2000,1.945
28.2400,1.931
28.2800,1.932
28.3200,1.973
28.3600,1.973
28.4000,1.959
28.4400,2.011
28.4800,1.969
28.5200,1.977
28.5600,1.978
28.6000,1.952
28.6400,1.961
28.6800,1.947
28.7200,1.900
28.7600,1.949
28.8000,1.987
28.8400,1.971
28.8800,1.965
28.9200,1.917
28.9600,1.954
29.0000,1.881
29.0400,1.933
29.0800,1.866
29.1200,1.911
29.1600,1.942
29.2000,1.930
29.2400,1.899
29.2800,1.904
29.3200,1.905
29.3600,1.952
29.4000,1.953
29.4400,1.850
29.4800,1.843
29.5200,1.830
29.5600,1.948
29.6000,1.918
29.6400,1.872
29.6800,1.846
29.7200,1.907
29.7600,1.837
29.8000,1.940
29.8400,1.816
29.8800,1.875
29.9200,1.891
29.9600,1.916
30.0000,1.874
30.0400,1.828
30.0800,1.811
30.1200,1.813
30.1600,1.838
30.2000,1.771
30.2400,1.800
30.2800,1.842
30.3200,1.801
30.3600,1.816
30.4000,1.919
30.4400,1.797
30.4800,1.786
30.5200,1.771
30.5600,1.863
30.6000,1.899
30.6400,1.823
30.6800,1.827
30.7200,1.775
30.7600,1.752
30.8000,1.795
30.8400,1.879
30.8800,1.787
30.9200,1.784
30.9600,1.786
31.0000,1.808
31.0400,1.850
31.0800,1.777
31.1200,1.676
31.1600,1.817
31.2000,1.812
31.2400,1.720
31.2800,1.730
31.3200,1.741
31.3600,1.771
31.4000,1.685
31.4400,1.704
31.4800,1.711
31.5200,1.748
31.5600,1.798
31.6000,1.712
31.6400,1.696
31.6800,1.828
31.7200,1.731
31.7600,1.724
31.8000,1.775
31.8400,1.764
31.8800,1.774
31.9200,1.747
31.9600,1.689
32.0000,1.678
32.0400,1.656
32.0800,1.672
32.1200,1.724
32.1600,1.633
32.2000,1.681
32.2400,1.672
32.2800,1.669
32.3200,1.682
32.3600,1.702
32.4000,1.606
32.4400,1.664
32.4800,1.729
32.5200,1.641
32.5600,1.699
32.6000,1.692
32.6400,1.706
32.6800,1.676
32.7200,1.688
32.7600,1.643
32.8000,1.645
32.8400,1.689
32.8800,1.553
32.9200,1.683
32.9600,1.839
33.0000,2.715
33.0400,2.810
33.0800,1.880
33.1200,1.630
33.1600,1.656
33.2000,1.638
33.2400,1.643
33.2800,1.625
33.3200,1.611
33.3600,1.604
33.4000,1.606
33.4400,1.639
33.4800,1.700
33.5200,1.644
33.5600,1.616
33.6000,1.657
33.6400,1.542
33.6800,1.614
33.7200,1.659
33.7600,1.560
33.8000,1.562
33.8400,1.649
33.8800,1.604
33.9200,1.633
33.9600,1.518
34.0000,1.644
34.0400,1.617
34.0800,1.603
34.1200,1.523
34.1600,1.577
34.2000,1.653
34.2400,1.601
34.2800,1.553
34.3200,1.561
34.3600,1.556
34.4000,1.608
34.4400,1.549
34.4800,1.599
34.5200,1.517
34.5600,1.574
34.6000,1.563
34.6400,1.458
34.6800,1.494
34.7200,1.520
34.7600,1.534
34.8000,1.601
34.8400,1.511
34.8800,1.598
34.9200,1.566
34.9600,1.466
35.0000,1.547
35.0400,1.538
35.0800,1.572
35.1200,1.534
35.1600,1.538
35.2000,1.513
35.2400,1.477
35.2800,1.457
35.3200,1.502
35.3600,1.541
35.4000,1.528
35.4400,1.527
35.4800,1.509
35.5200,1.566
35.5600,1.443
35.6000,1.537
35.6400,1.525
35.6800,1.438
35.7200,1.499
35.7600,1.471
35.8000,1.505
35.8400,1.520
35.8800,1.551
35.9200,1.517
35.9600,1.524
36.0000,1.545
36.0400,1.520
36.0800,1.426
36.1200,1.525
36.1600,1.553
36.2000,1.554
36.2400,1.506
36.2800,1.505
36.3200,1.552
36.3600,1.563
36.4000,1.516
36.4400,1.513
36.4800,1.542
36.5200,1.510
36.5600,1.485
36.6000,1.493
36.6400,1.544
36.6800,1.493
36.7200,1.563
36.7600,1.568
36.8000,1.575
36.8400,1.559
36.8800,1.561
36.9200,1.584
36.9600,1.616
37.0000,1.592
37.0400,1.657
37.0800,1.608
37.1200,1.633
37.1600,1.698
37.2000,1.694
37.2400,1.627
37.2800,1.725
37.3200,1.756
37.3600,1.747
37.4000,1.789
37.4400,1.828
37.4800,1.847
37.5200,1.968
37.5600,1.953
37.6000,2.035
37.6400,2.147
37.6800,2.313
37.7200,2.448
37.7600,2.513
37.8000,2.807
37.8400,3.147
37.8800,3.576
37.9200,3.966
37.9600,4.725
38.0000,5.610
38.0400,6.714
38.0800,8.091
38.1200,9.390
38.1600,10.607
38.2000,11.004
38.2400,10.566
38.2800,9.457
38.3200,8.196
38.3600,6.820
38.4000,5.805
38.4400,4.890
38.4800,4.100
38.5200,3.611
38.5600,3.252
38.6000,2.960
38.6400,2.676
38.6800,2.486
38.7200,2.332
38.7600,2.214
38.8000,2.122
38.8400,1.988
38.8800,1.918
38.9200,1.807
38.9600,1.826
39.0000,1.785
39.0400,1.764
39.0800,1.644
39.1200,1.603
39.1600,1.624
39.2000,1.643
39.2400,1.602
39.2800,1.561
39.3200,1.496
39.3600,1.507
39.4000,1.464
39.4400,1.459
39.4800,1.454
39.5200,1.461
39.5600,1.360
39.6000,1.389
39.6400,1.361
39.6800,1.398
39.7200,1.383
39.7600,1.321
39.8000,1.325
39.8400,1.330
39.8800,1.337
39.9200,1.302
39.9600,1.351
40.0000,1.347
40.0400,1.374
40.0800,1.309
40.1200,1.328
40.1600,1.353
40.2000,1.363
40.2400,1.370
40.2800,1.237
40.3200,1.333
40.3600,1.281
40.4000,1.282
40.4400,1.281
40.4800,1.300
40.5200,1.277
40.5600,1.288
40.6000,1.271
40.6400,1.286
40.6800,1.284
40.7200,1.264
40.7600,1.217
40.8000,1.260
40.8400,1.255
40.8800,1.244
40.9200,1.300
40.9600,1.218
41.0000,1.252
41.0400,1.225
41.0800,1.214
41.1200,1.220
41.1600,1.248
41.2000,1.221
41.2400,1.187
41.2800,1.225
41.3200,1.222
41.3600,1.207
41.4000,1.287
41.4400,1.257
41.4800,1.245
41.5200,1.271
41.5600,1.177
41.6000,1.213
41.6400,1.260
41.6800,1.247
41.7200,1.196
41.7600,1.125
41.8000,1.163
41.8400,1.263
41.8800,1.231
41.9200,1.161
41.9600,1.195
42.0000,1.129
42.0400,1.158
42.0800,1.167
42.1200,1.220
42.1600,1.242
42.2000,1.157
42.2400,1.172
42.2800,1.169
42.3200,1.175
42.3600,1.122
42.4000,1.172
42.4400,1.125
42.4800,1.185
42.5200,1.076
42.5600,1.179
42.6000,1.155
42.6400,1.134
42.6800,1.185
42.7200,1.147
42.7600,1.154
42.8000,1.189
42.8400,1.125
42.8800,1.157
42.9200,1.134
42.9600,1.127
43.0000,1.136
43.0400,1.227
43.0800,1.214
43.1200,1.170
43.1600,1.192
43.2000,1.217
43.2400,1.231
43.2800,1.189
43.3200,1.188
43.3600,1.207
43.4000,1.210
43.4400,1.246
43.4800,1.266
43.5200,1.298
43.5600,1.292
43.6000,1.278
43.6400,1.326
43.6800,1.405
43.7200,1.457
43.7600,1.431
43.8000,1.464
43.8400,1.426
43.8800,1.485
43.9200,1.599
43.9600,1.592
44.0000,1.738
44.0400,1.751
44.0800,1.884
44.1200,2.107
44.1600,2.154
44.2000,2.270
44.2400,2.487
44.2800,2.608
44.3200,2.866
44.3600,2.912
44.4000,3.091
44.4400,3.005
44.4800,2.896
44.5200,2.724
44.5600,2.583
44.6000,2.475
44.6400,2.277
44.6800,2.072
44.7200,1.921
44.7600,1.813
44.8000,1.686
44.8400,1.589
44.8800,1.528
44.9200,1.464
44.9600,1.403
45.0000,1.408
45.0400,1.257
45.0800,1.299
45.1200,1.214
45.1600,1.172
45.2000,1.167
45.2400,1.189
45.2800,1.148
45.3200,1.104
45.3600,1.127
45.4000,1.037
45.4400,1.093
45.4800,1.050
45.5200,1.046
45.5600,1.035
45.6000,1.071
45.6400,1.032
45.6800,1.030
45.7200,0.971
45.7600,1.013
45.8000,0.984
45.8400,1.027
45.8800,1.047
45.9200,1.041
45.9600,0.953
46.0000,0.981
46.0400,0.992
46.0800,0.959
46.1200,0.975
46.1600,1.029
46.2000,0.937
46.2400,0.936
46.2800,0.965
46.3200,0.956
46.3600,0.919
46.4000,0.936
46.4400,0.952
46.4800,0.939
46.5200,0.923
46.5600,0.899
46.6000,0.908
46.6400,0.902
46.6800,0.940
46.7200,0.947
46.7600,0.912
46.8000,0.898
46.8400,0.914
46.8800,0.864
46.9200,0.879
46.9600,0.913
47.0000,0.882
47.0400,0.892
47.0800,0.851
47.1200,0.889
47.1600,0.873
47.2000,0.889
47.2400,0.911
47.2800,0.854
47.3200,0.883
47.3600,0.950
47.4000,0.914
47.4400,0.899
47.4800,0.892
47.5200,0.886
47.5600,0.886
47.6000,0.855
47.6400,0.879
47.6800,0.856
47.7200,0.867
47.7600,0.876
47.8000,0.861
47.8400,0.872
47.8800,0.863
47.9200,0.840
47.9600,0.830
48.0000,0.851
48.0400,0.885
48.0800,0.851
48.1200,0.839
48.1600,0.873
48.2000,0.853
48.2400,0.875
48.2800,0.921
48.3200,0.859
48.3600,0.873
48.4000,0.865
48.4400,0.843
48.4800,0.837
48.5200,0.835
48.5600,0.832
48.6000,0.799
48.6400,0.845
48.6800,0.783
48.7200,0.811
48.7600,0.818
48.8000,0.799
48.8400,0.801
48.8800,0.808
48.9200,0.853
48.9600,0.899
49.0000,0.816
49.0400,0.771
49.0800,0.831
49.1200,0.784
49.1600,0.777
49.2000,0.823
49.2400,0.810
49.2800,0.775
49.3200,0.790
49.3600,0.818
49.4000,0.801
49.4400,0.792
49.4800,0.804
49.5200,0.815
49.5600,0.803
49.6000,0.766
49.6400,0.848
49.6800,0.829
49.7200,0.781
49.7600,0.770
49.8000,0.798
49.8400,0.751
49.8800,0.761
49.9200,0.735
49.9600,0.781
50.0000,0.763
50.0400,0.826
50.0800,0.802
50.1200,0.816
50.1600,0.757
50.2000,0.752
50.2400,0.812
50.2800,0.757
50.3200,0.754
50.3600,0.788
50.4000,0.761
50.4400,0.775
50.4800,0.704
50.5200,0.742
50.5600,0.752
50.6000,0.763
50.6400,0.778
50.6800,0.782
50.7200,0.775
50.7600,0.764
50.8000,0.786
50.8400,0.776
50.8800,0.763
50.9200,0.811
50.9600,0.744
51.0000,0.745
51.0400,0.751
51.0800,0.771
51.1200,0.734
51.1600,0.744
51.2000,0.769
51.2400,0.757
51.2800,0.727
51.3200,0.744
51.3600,0.721
51.4000,0.775
51.4400,0.730
51.4800,0.713
51.5200,0.740
51.5600,0.737
51.6000,0.738
51.6400,0.690
51.6800,0.733
51.7200,0.760
51.7600,0.759
51.8000,0.720
51.8400,0.733
51.8800,0.775
51.9200,0.716
51.9600,0.679
52.0000,0.694
52.0400,0.753
52.0800,0.713
52.1200,0.708
52.1600,0.707
52.2000,0.698
52.2400,0.660
52.2800,0.736
52.3200,0.702
52.3600,0.681
52.4000,0.719
52.4400,0.725
52.4800,0.703
52.5200,0.719
52.5600,0.700
52.6000,0.717
52.6400,0.704
52.6800,0.677
52.7200,0.720
52.7600,0.722
52.8000,0.753
52.8400,0.668
52.8800,0.696
52.9200,0.686
52.9600,0.685
53.0000,0.738
53.0400,0.706
53.0800,0.745
53.1200,0.669
53.1600,0.695
53.2000,0.691
53.2400,0.670
53.2800,0.695
53.3200,0.653
53.3600,0.653
53.4000,0.692
53.4400,0.670
53.4800,0.672
53.5200,0.732
53.5600,0.679
53.6000,0.692
53.6400,0.689
53.6800,0.699
53.7200,0.676
53.7600,0.705
53.8000,0.667
53.8400,0.699
53.8800,0.703
53.9200,0.706
53.9600,0.679
54.0000,0.689
54.0400,0.687
54.0800,0.675
54.1200,0.677
54.1600,0.674
54.2000,0.678
54.2400,0.700
54.2800,0.655
54.3200,0.667
54.3600,0.628
54.4000,0.686
54.4400,0.686
54.4800,0.664
54.5200,0.637
54.5600,0.705
54.6000,0.662
54.6400,0.658
54.6800,0.704
54.7200,0.633
54.7600,0.674
54.8000,0.673
54.8400,0.647
54.8800,0.688
54.9200,0.622
54.9600,0.625
55.0000,0.598
55.0400,0.627
55.0800,0.685
55.1200,0.657
55.1600,0.643
55.2000,0.671
55.2400,0.632
55.2800,0.641
55.3200,0.643
55.3600,0.651
55.4000,0.672
55.4400,0.637
55.4800,0.614
55.5200,0.674
55.5600,0.634
55.6000,0.623
55.6400,0.668
55.6800,0.629
55.7200,0.621
55.7600,0.591
55.8000,0.633
55.8400,0.611
55.8800,0.636
55.9200,0.629
55.9600,0.650
56.0000,0.638
56.0400,0.644
56.0800,0.614
56.1200,0.608
56.1600,0.635
56.2000,0.612
56.2400,0.668
56.2800,0.618
56.3200,0.618
56.3600,0.629
56.4000,0.671
56.4400,0.607
56.4800,0.574
56.5200,0.626
56.5600,0.632
56.6000,0.618
56.6400,0.610
56.6800,0.656
56.7200,0.634
56.7600,0.618
56.8000,0.641
56.8400,0.624
56.8800,0.626
56.9200,0.649
56.9600,0.621
57.0000,0.640
57.0400,0.622
57.0800,0.671
57.1200,0.648
57.1600,0.584
57.2000,0.608
57.2400,0.656
57.2800,0.590
57.3200,0.586
57.3600,0.621
57.4000,0.614
57.4400,0.631
57.4800,0.577
57.5200,0.577
57.5600,0.583
57.6000,0.612
57.6400,0.663
57.6800,0.622
57.7200,0.560
57.7600,0.635
57.8000,0.590
57.8400,0.628
57.8800,0.570
57.9200,0.575
57.9600,0.606
58.0000,0.627
58.0400,0.640
58.0800,0.598
58.1200,0.567
58.1600,0.634
58.2000,0.591
58.2400,0.610
58.2800,0.636
58.3200,0.574
58.3600,0.595
58.4000,0.603
58.4400,0.643
58.4800,0.590
58.5200,0.609
58.5600,0.599
58.6000,0.572
58.6400,0.565
58.6800,0.607
58.7200,0.589
58.7600,0.552
58.8000,0.575
58.8400,0.553
58.8800,0.595
58.9200,0.580
58.9600,0.576
59.0000,0.608
59.0400,0.586
59.0800,0.630
59.1200,0.654
59.1600,0.638
59.2000,0.582
59.2400,0.629
59.2800,0.598
59.3200,0.605
59.3600,0.558
59.4000,0.591
59.4400,0.632
59.4800,0.614
59.5200,0.551
59.5600,0.586
59.6000,0.572
59.6400,0.576
59.6800,0.581
59.7200,0.576
59.7600,0.616
59.8000,0.582
59.8400,0.574
59.8800,0.553
59.9200,0.572
59.9600,0.579
60.0000,0.565
60.0400,0.565
60.0800,0.551
60.1200,0.551
60.1600,0.555
60.2000,0.544
60.2400,0.574
60.2800,0.567
60.3200,0.568
60.3600,0.587
60.4000,0.525
60.4400,0.562
60.4800,0.553
60.5200,0.550
60.5600,0.575
60.6000,0.548
60.6400,0.580
60.6800,0.532
60.7200,0.546
60.7600,0.525
60.8000,0.591
60.8400,0.570
60.8800,0.529
60.9200,0.580
60.9600,0.541
61.0000,0.541
61.0400,0.539
61.0800,0.597
61.1200,0.561
61.1600,0.568
61.2000,0.561
61.2400,0.534
61.2800,0.561
61.3200,0.576
61.3600,0.568
61.4000,0.567
61.4400,0.535
61.4800,0.572
61.5200,0.574
61.5600,0.577
61.6000,0.638
61.6400,0.627
61.6800,0.621
61.7200,0.592
61.7600,0.537
61.8000,0.557
61.8400,0.550
61.8800,0.557
61.9200,0.584
61.9600,0.551
62.0000,0.523
62.0400,0.544
62.0800,0.542
62.1200,0.540
62.1600,0.529
62.2000,0.564
62.2400,0.558
62.2800,0.509
62.3200,0.545
62.3600,0.542
62.4000,0.560
