theta,intensity
5.0000,4.369
5.0400,4.358
5.0800,4.305
5.1200,4.363
5.1600,4.309
5.2000,4.364
5.2400,4.338
5.2800,4.220
5.3200,4.326
5.3600,4.263
5.4000,4.263
5.4400,4.164
5.4800,4.282
5.5200,4.271
5.5600,4.215
5.6000,4.204
5.6400,4.262
5.6800,4.262
5.7200,4.232
5.7600,4.200
5.8000,4.144
5.8400,4.094
5.8800,4.069
5.9200,4.044
5.9600,4.070
6.0000,4.083
6.0400,4.083
6.0800,3.927
6.1200,3.916
6.1600,3.906
6.2000,3.840
6.2400,3.900
6.2800,3.845
6.3200,3.839
6.3600,3.834
6.4000,3.758
6.4400,3.844
6.4800,3.826
6.5200,3.836
6.5600,3.811
6.6000,3.896
6.6400,3.867
6.6800,3.840
6.7200,3.855
6.7600,3.836
6.8000,3.754
6.8400,3.872
6.8800,3.808
6.9200,3.730
6.9600,3.833
7.0000,3.838
7.0400,3.780
7.0800,3.726
7.1200,3.757
7.1600,3.819
7.2000,3.809
7.2400,3.658
7.2800,3.751
7.3200,3.766
7.3600,3.728
7.4000,3.705
7.4400,3.826
7.4800,3.762
7.5200,3.643
7.5600,3.715
7.6000,3.601
7.6400,3.630
7.6800,3.771
7.7200,3.696
7.7600,3.846
7.8000,3.752
7.8400,3.568
7.8800,3.689
7.9200,3.655
7.9600,3.609
8.0000,3.522
8.0400,3.743
8.0800,3.736
8.1200,3.617
8.1600,3.634
8.2000,3.515
8.2400,3.607
8.2800,3.598
8.3200,3.463
8.3600,3.545
8.4000,3.594
8.4400,3.621
8.4800,3.647
8.5200,3.571
8.5600,3.542
8.6000,3.624
8.6400,3.560
8.6800,3.576
8.7200,3.537
8.7600,3.552
8.8000,3.616
8.8400,3.597
8.8800,3.612
8.9200,3.557
8.9600,3.529
9.0000,3.562
9.0400,3.567
9.0800,3.585
9.1200,3.528
9.1600,3.554
9.2000,3.544
9.2400,3.526
9.2800,3.402
9.3200,3.349
9.3600,3.485
9.4000,3.634
9.4400,3.552
9.4800,3.457
9.5200,3.559
9.5600,3.593
9.6000,3.596
9.6400,3.527
9.6800,3.524
9.7200,3.502
9.7600,3.473
9.8000,3.474
9.8400,3.469
9.8800,3.379
9.9200,3.529
9.9600,3.470
10.0000,3.511
10.0400,3.470
10.0800,3.436
10.1200,3.393
10.1600,3.379
10.2000,3.461
10.2400,3.504
10.2800,3.557
10.3200,3.423
10.3600,3.423
10.4000,3.400
10.4400,3.400
10.4800,3.418
10.5200,3.299
10.5600,3.439
10.6000,3.377
10.6400,3.398
10.6800,3.499
10.7200,3.470
10.7600,3.344
10.8000,3.437
10.8400,3.412
10.8800,3.288
10.9200,3.416
10.9600,3.302
11.0000,3.377
11.0400,3.328
11.0800,3.354
11.1200,3.413
11.1600,3.338
11.2000,3.304
11.2400,3.293
11.2800,3.362
11.3200,3.411
11.3600,3.471
11.4000,3.302
11.4400,3.342
11.4800,3.465
11.5200,3.292
11.5600,3.316
11.6000,3.354
11.6400,3.292
11.6800,3.331
11.7200,3.172
11.7600,3.380
11.8000,3.316
11.8400,3.214
11.8800,3.308
11.9200,3.357
11.9600,3.459
12.0000,3.220
12.0400,3.290
12.0800,3.144
12.1200,3.177
12.1600,3.269
12.2000,3.280
12.2400,3.338
12.2800,3.374
12.3200,3.174
12.3600,3.208
12.4000,3.260
12.4400,3.283
12.4800,3.174
12.5200,3.252
12.5600,3.184
12.6000,3.291
12.6400,3.242
12.6800,3.204
12.7200,3.164
12.7600,3.220
12.8000,3.213
12.8400,3.184
12.8800,3.205
12.9200,3.151
12.9600,3.238
13.0000,3.224
13.0400,3.186
13.0800,3.206
13.1200,3.173
13.1600,3.142
13.2000,3.150
13.2400,3.151
13.2800,3.290
13.3200,3.097
13.3600,3.214
13.4000,3.238
13.4400,3.238
13.4800,3.087
13.5200,3.177
13.5600,3.125
13.6000,3.165
13.6400,3.099
13.6800,3.057
13.7200,3.108
13.7600,3.142
13.8000,3.099
13.8400,3.047
13.8800,3.133
13.9200,3.189
13.9600,3.136
14.0000,3.093
14.0400,3.094
14.0800,3.033
14.1200,3.112
14.1600,3.043
14.2000,3.078
14.2400,3.097
14.2800,3.130
14.3200,3.074
14.3600,3.017
14.4000,3.066
14.4400,3.074
14.4800,2.896
14.5200,3.047
14.5600,3.016
14.6000,2.994
14.6400,3.161
14.6800,2.949
14.7200,3.016
14.7600,3.026
14.8000,2.979
14.8400,3.055
14.8800,2.927
14.9200,2.957
14.9600,2.922
15.0000,3.040
15.0400,2.959
15.0800,2.956
15.1200,2.973
15.1600,3.015
15.2000,2.976
15.2400,3.010
15.2800,2.937
15.3200,2.874
15.3600,3.020
15.4000,3.050
15.4400,2.996
15.4800,3.000
15.5200,2.990
15.5600,2.923
15.6000,3.025
15.6400,2.940
15.6800,2.929
15.7200,2.929
15.7600,2.883
15.8000,2.983
15.8400,2.862
15.8800,2.933
15.9200,2.967
15.9600,3.010
16.0000,2.916
16.0400,3.037
16.0800,2.820
16.1200,2.939
16.1600,2.865
16.2000,2.954
16.2400,2.930
16.2800,2.907
16.3200,2.955
16.3600,2.813
16.4000,2.907
16.4400,2.909
16.4800,2.870
16.5200,2.878
16.5600,2.880
16.6000,2.928
16.6400,2.850
16.6800,2.945
16.7200,2.813
16.7600,2.869
16.8000,2.861
16.8400,2.905
16.8800,2.850
16.9200,2.813
16.9600,2.852
17.0000,2.857
17.0400,2.953
17.0800,2.921
17.1200,2.813
17.1600,2.823
17.2000,2.834
17.2400,2.788
17.2800,2.791
17.3200,2.894
17.3600,2.874
17.4000,2.863
17.4400,2.857
17.4800,2.804
17.5200,2.800
17.5600,2.770
17.6000,2.810
17.6400,2.815
17.6800,2.817
17.7200,2.759
17.7600,2.865
17.8000,2.753
17.8400,2.772
17.8800,2.749
17.9200,2.706
17.9600,2.756
18.0000,2.749
18.0400,2.680
18.0800,2.778
18.1200,2.832
18.1600,2.783
18.2000,2.741
18.2400,2.743
18.2800,2.550
18.3200,2.558
18.3600,2.690
18.4000,2.725
18.4400,2.721
18.4800,2.681
18.5200,2.679
18.5600,2.674
18.6000,2.725
18.6400,2.746
18.6800,2.689
18.7200,2.692
18.7600,2.659
18.8000,2.659
18.8400,2.654
18.8800,2.659
18.9200,2.614
18.9600,2.678
19.0000,2.693
19.0400,2.683
19.0800,2.653
19.1200,2.730
19.1600,2.637
19.2000,2.635
19.2400,2.629
19.2800,2.693
19.3200,2.613
19.3600,2.677
19.4000,2.592
19.4400,2.651
19.4800,2.649
19.5200,2.663
19.5600,2.597
19.6000,2.588
19.6400,2.584
19.6800,2.533
19.7200,2.581
19.7600,2.583
19.8000,2.540
19.8400,2.606
19.8800,2.648
19.9200,2.530
19.9600,2.599
20.0000,2.663
20.0400,2.587
20.0800,2.602
20.1200,2.531
20.1600,2.571
20.2000,2.530
20.2400,2.609
20.2800,2.577
20.3200,2.539
20.3600,2.471
20.4000,2.585
20.4400,2.464
20.4800,2.536
20.5200,2.541
20.5600,2.494
20.6000,2.528
20.6400,2.506
20.6800,2.505
20.7200,2.541
20.7600,2.525
20.8000,2.469
20.8400,2.549
20.8800,2.471
20.9200,2.442
20.9600,2.409
21.0000,2.440
21.0400,2.505
21.0800,2.492
21.1200,2.501
21.1600,2.406
21.2000,2.410
21.2400,2.443
21.2800,2.409
21.3200,2.493
21.3600,2.396
21.4000,2.367
21.4400,2.408
21.4800,2.527
21.5200,2.488
21.5600,2.418
21.6000,2.437
21.6400,2.388
21.6800,2.453
21.7200,2.391
21.7600,2.426
21.8000,2.372
21.8400,2.343
21.8800,2.391
21.9200,2.411
21.9600,2.372
22.0000,2.499
22.0400,2.447
22.0800,2.401
22.1200,2.313
22.1600,2.403
22.2000,2.430
22.2400,2.439
22.2800,2.430
22.3200,2.352
22.3600,2.405
22.4000,2.419
22.4400,2.363
22.4800,2.356
22.5200,2.361
22.5600,2.376
22.6000,2.351
22.6400,2.415
22.6800,2.319
22.7200,2.327
22.7600,2.393
22.8000,2.394
22.8400,2.291
22.8800,2.322
22.9200,2.325
22.9600,2.293
23.0000,2.375
23.0400,2.263
23.0800,2.259
23.1200,2.298
23.1600,2.332
23.2000,2.331
23.2400,2.302
23.2800,2.293
23.3200,2.280
23.3600,2.240
23.4000,2.234
23.4400,2.313
23.4800,2.294
23.5200,2.257
23.5600,2.205
23.6000,2.243
23.6400,2.304
23.6800,2.219
23.7200,2.218
23.7600,2.305
23.8000,2.211
23.8400,2.229
23.8800,2.251
23.9200,2.224
23.9600,2.295
24.0000,2.302
24.0400,2.247
24.0800,2.266
24.1200,2.274
24.1600,2.235
24.2000,2.195
24.2400,2.164
24.2800,2.178
24.3200,2.201
24.3600,2.236
24.4000,2.181
24.4400,2.138
24.4800,2.148
24.5200,2.083
24.5600,2.196
24.6000,2.173
24.6400,2.171
24.6800,2.184
24.7200,2.190
24.7600,2.127
24.8000,2.178
24.8400,2.262
24.8800,2.098
24.9200,2.127
24.9600,2.158
25.0000,2.138
25.0400,2.167
25.0800,2.139
25.1200,2.180
25.1600,2.137
25.2000,2.147
25.2400,2.024
25.2800,2.066
25.3200,2.113
25.3600,2.123
25.4000,2.077
25.4400,2.094
25.4800,2.195
25.5200,2.190
25.5600,2.048
25.6000,2.060
25.6400,2.085
25.6800,2.135
25.7200,2.115
25.7600,2.136
25.8000,2.105
25.8400,2.074
25.8800,2.095
25.9200,2.087
25.9600,2.144
26.0000,2.108
26.0400,2.004
26.0800,2.072
26.1200,2.034
26.1600,1.997
26.2000,2.018
26.2400,2.076
26.2800,2.036
26.3200,2.091
26.3600,2.011
26.4000,2.100
26.4400,2.034
26.4800,2.005
26.5200,1.941
26.5600,1.977
26.6000,1.987
26.6400,1.970
26.6800,2.023
26.7200,1.986
26.7600,2.010
26.8000,2.044
26.8400,1.998
26.8800,1.963
26.9200,2.034
26.9600,1.960
27.0000,2.029
27.0400,1.925
27.0800,2.015
27.1200,1.974
27.1600,1.936
27.2000,1.886
27.2400,1.974
27.2800,2.042
27.3200,1.935
27.3600,1.932
27.4000,1.903
27.4400,1.938
27.4800,1.895
27.5200,1.915
27.5600,1.910
27.6000,1.896
27.6400,1.958
27.6800,1.953
27.7200,2.023
27.7600,1.973
27.8000,1.957
27.8400,1.871
27.8800,1.942
27.9200,1.935
27.9600,1.961
28.0000,1.911
28.0400,1.861
28.0800,1.867
28.1200,1.815
28.1600,1.909
28.2000,1.886
28.2400,1.937
28.2800,1.888
28.3200,1.940
28.3600,1.890
28.4000,1.820
28.4400,1.899
28.4800,1.888
28.5200,1.924
28.5600,1.914
28.6000,1.881
28.6400,1.854
28.6800,1.883
28.7200,1.893
28.7600,1.874
28.8000,1.890
28.8400,1.805
28.8800,1.830
28.9200,1.823
28.9600,1.846
29.0000,1.787
29.0400,1.866
29.0800,1.783
29.1200,1.903
29.1600,1.828
29.2000,1.833
29.2400,1.830
29.2800,1.811
29.3200,1.794
29.3600,1.803
29.4000,1.764
29.4400,1.782
29.4800,1.820
29.5200,1.756
29.5600,1.822
29.6000,1.865
29.6400,1.758
29.6800,1.769
29.7200,1.865
29.7600,1.711
29.8000,1.761
29.8400,1.754
29.8800,1.749
29.9200,1.753
29.9600,1.804
30.0000,1.727
30.0400,1.722
30.0800,1.736
30.1200,1.733
30.1600,1.734
30.2000,1.706
30.2400,1.781
30.2800,1.740
30.3200,1.761
30.3600,1.709
30.4000,1.681
30.4400,1.714
30.4800,1.666
30.5200,1.747
30.5600,1.760
30.6000,1.785
30.6400,1.749
30.6800,1.700
30.7200,1.743
30.7600,1.698
30.8000,1.684
30.8400,1.676
30.8800,1.664
30.9200,1.738
30.9600,1.665
31.0000,1.652
31.0400,1.664
31.0800,1.636
31.1200,1.669
31.1600,1.696
31.2000,1.692
31.2400,1.707
31.2800,1.716
31.3200,1.688
31.3600,1.724
31.4000,1.661
31.4400,1.713
31.4800,1.632
31.5200,1.655
31.5600,1.588
31.6000,1.620
31.6400,1.632
31.6800,1.600
31.7200,1.660
31.7600,1.695
31.8000,1.604
31.8400,1.642
31.8800,1.662
31.9200,1.616
31.9600,1.607
32.0000,1.620
32.0400,1.673
32.0800,1.604
32.1200,1.557
32.1600,1.580
32.2000,1.614
32.2400,1.637
32.2800,1.602
32.3200,1.559
32.3600,1.578
32.4000,1.598
32.4400,1.584
32.4800,1.631
32.5200,1.588
32.5600,1.613
32.6000,1.604
32.6400,1.626
32.6800,1.639
32.7200,1.623
32.7600,1.555
32.8000,1.595
32.8400,1.521
32.8800,1.598
32.9200,1.545
32.9600,1.532
33.0000,1.516
33.0400,1.568
33.0800,1.621
33.1200,1.566
33.1600,1.514
33.2000,1.597
33.2400,1.511
33.2800,1.563
33.3200,1.592
33.3600,1.492
33.4000,1.558
33.4400,1.533
33.4800,1.490
33.5200,1.687
33.5600,1.513
33.6000,1.560
33.6400,1.529
33.6800,1.528
33.7200,1.487
33.7600,1.510
33.8000,1.500
33.8400,1.536
33.8800,1.559
33.9200,1.546
33.9600,1.477
34.0000,1.481
34.0400,1.497
34.0800,1.551
34.1200,1.491
34.1600,1.546
34.2000,1.553
34.2400,1.489
34.2800,1.482
34.3200,1.496
34.3600,1.541
34.4000,1.510
34.4400,1.487
34.4800,1.481
34.5200,1.519
34.5600,1.499
34.6000,1.508
34.6400,1.460
34.6800,1.445
34.7200,1.540
34.7600,1.520
34.8000,1.505
34.8400,1.477
34.8800,1.402
34.9200,1.579
34.9600,1.516
35.0000,1.484
35.0400,1.523
35.0800,1.437
35.1200,1.483
35.1600,1.436
35.2000,1.464
35.2400,1.402
35.2800,1.397
35.3200,1.462
35.3600,1.483
35.4000,1.474
35.4400,1.470
35.4800,1.409
35.5200,1.463
35.5600,1.442
35.6000,1.373
35.6400,1.446
35.6800,1.523
35.7200,1.441
35.7600,1.497
35.8000,1.435
35.8400,1.413
35.8800,1.407
35.9200,1.463
35.9600,1.470
36.0000,1.530
36.0400,1.443
36.0800,1.494
36.1200,1.437
36.1600,1.487
36.2000,1.431
36.2400,1.437
36.2800,1.503
36.3200,1.517
36.3600,1.483
36.4000,1.512
36.4400,1.431
36.4800,1.414
36.5200,1.432
36.5600,1.504
36.6000,1.547
36.6400,1.524
36.6800,1.391
36.7200,1.471
36.7600,1.512
36.8000,1.510
36.8400,1.482
36.8800,1.536
36.9200,1.546
36.9600,1.539
37.0000,1.484
37.0400,1.597
37.0800,1.574
37.1200,1.611
37.1600,1.563
37.2000,1.557
37.2400,1.570
37.2800,1.558
37.3200,1.575
37.3600,1.595
37.4000,1.579
37.4400,1.671
37.4800,1.690
37.5200,1.716
37.5600,1.715
37.6000,1.717
37.6400,1.790
37.6800,1.846
37.7200,1.811
37.7600,1.855
37.8000,1.942
37.8400,2.031
37.8800,2.115
37.9200,2.202
37.9600,2.326
38.0000,2.386
38.0400,2.527
38.0800,2.629
38.1200,2.801
38.1600,3.007
38.2000,3.231
38.2400,3.578
38.2800,3.728
38.3200,3.884
38.3600,4.115
38.4000,4.237
38.4400,4.315
38.4800,4.458
38.5200,4.555
38.5600,4.506
38.6000,4.710
38.6400,4.755
38.6800,4.832
38.7200,4.756
38.7600,4.714
38.8000,4.596
38.8400,4.375
38.8800,4.247
38.9200,3.814
38.9600,3.789
39.0000,3.481
39.0400,3.370
39.0800,3.325
39.1200,3.140
39.1600,3.027
39.2000,3.032
39.2400,2.888
39.2800,2.849
39.3200,2.753
39.3600,2.788
39.4000,2.665
39.4400,2.599
39.4800,2.528
39.5200,2.433
39.5600,2.476
39.6000,2.381
39.6400,2.316
39.6800,2.293
39.7200,2.328
39.7600,2.300
39.8000,2.216
39.8400,2.293
39.8800,2.220
39.9200,2.130
39.9600,2.179
40.0000,2.122
40.0400,2.017
40.0800,1.928
40.1200,2.049
40.1600,1.970
40.2000,1.886
40.2400,1.806
40.2800,1.814
40.3200,1.792
40.3600,1.771
40.4000,1.698
40.4400,1.670
40.4800,1.576
40.5200,1.609
40.5600,1.545
40.6000,1.578
40.6400,1.597
40.6800,1.573
40.7200,1.495
40.7600,1.494
40.8000,1.470
40.8400,1.407
40.8800,1.435
40.9200,1.392
40.9600,1.387
41.0000,1.445
41.0400,1.415
41.0800,1.442
41.1200,1.422
41.1600,1.328
41.2000,1.361
41.2400,1.435
41.2800,1.410
41.3200,1.368
41.3600,1.391
41.4000,1.327
41.4400,1.286
41.4800,1.352
41.5200,1.261
41.5600,1.344
41.6000,1.357
41.6400,1.332
41.6800,1.343
41.7200,1.359
41.7600,1.270
41.8000,1.286
41.8400,1.251
41.8800,1.303
41.9200,1.310
41.9600,1.204
42.0000,1.234
42.0400,1.261
42.0800,1.267
42.1200,1.256
42.1600,1.256
42.2000,1.272
42.2400,1.212
42.2800,1.219
42.3200,1.223
42.3600,1.241
42.4000,1.221
42.4400,1.256
42.4800,1.209
42.5200,1.263
42.5600,1.263
42.6000,1.215
42.6400,1.216
42.6800,1.201
42.7200,1.212
42.7600,1.211
42.8000,1.213
42.8400,1.250
42.8800,1.193
42.9200,1.206
42.9600,1.159
43.0000,1.286
43.0400,1.278
43.0800,1.198
43.1200,1.253
43.1600,1.238
43.2000,1.228
43.2400,1.240
43.2800,1.238
43.3200,1.261
43.3600,1.250
43.4000,1.280
43.4400,1.211
43.4800,1.278
43.5200,1.237
43.5600,1.305
43.6000,1.315
43.6400,1.319
43.6800,1.278
43.7200,1.286
43.7600,1.300
43.8000,1.388
43.8400,1.372
43.8800,1.261
43.9200,1.360
43.9600,1.386
44.0000,1.390
44.0400,1.438
44.0800,1.459
44.1200,1.507
44.1600,1.479
44.2000,1.536
44.2400,1.554
44.2800,1.609
44.3200,1.628
44.3600,1.667
44.4000,1.682
44.4400,1.687
44.4800,1.704
44.5200,1.773
44.5600,1.838
44.6000,1.778
44.6400,1.731
44.6800,1.807
44.7200,1.858
44.7600,1.902
44.8000,1.875
44.8400,1.817
44.8800,1.827
44.9200,1.841
44.9600,1.849
45.0000,1.942
45.0400,1.896
45.0800,1.807
45.1200,1.918
45.1600,1.772
45.2000,1.768
45.2400,1.741
45.2800,1.679
45.3200,1.598
45.3600,1.514
45.4000,1.552
45.4400,1.581
45.4800,1.451
45.5200,1.538
45.5600,1.437
45.6000,1.464
45.6400,1.378
45.6800,1.353
45.7200,1.366
45.7600,1.323
45.8000,1.315
45.8400,1.320
45.8800,1.299
45.9200,1.292
45.9600,1.279
46.0000,1.291
46.0400,1.319
46.0800,1.267
46.1200,1.231
46.1600,1.166
46.2000,1.185
46.2400,1.196
46.2800,1.198
46.3200,1.206
46.3600,1.179
46.4000,1.192
46.4400,1.170
46.4800,1.160
46.5200,1.154
46.5600,1.104
46.6000,1.084
46.6400,1.098
46.6800,1.153
46.7200,1.095
46.7600,1.088
46.8000,1.046
46.8400,1.034
46.8800,1.118
46.9200,1.078
46.9600,1.065
47.0000,1.029
47.0400,1.018
47.0800,0.981
47.1200,0.966
47.1600,0.938
47.2000,0.946
47.2400,0.943
47.2800,0.955
47.3200,1.029
47.3600,0.905
47.4000,0.912
47.4400,0.993
47.4800,0.959
47.5200,0.931
47.5600,0.922
47.6000,0.964
47.6400,0.912
47.6800,0.933
47.7200,0.878
47.7600,0.875
47.8000,0.885
47.8400,0.898
47.8800,0.888
47.9200,0.891
47.9600,0.891
48.0000,0.931
48.0400,0.889
48.0800,0.831
48.1200,0.875
48.1600,0.888
48.2000,0.849
48.2400,0.822
48.2800,0.820
48.3200,0.897
48.3600,0.847
48.4000,0.842
48.4400,0.848
48.4800,0.857
48.5200,0.843
48.5600,0.798
48.6000,0.828
48.6400,0.839
48.6800,0.835
48.7200,0.812
48.7600,0.790
48.8000,0.796
48.8400,0.815
48.8800,0.836
48.9200,0.798
48.9600,0.823
49.0000,0.828
49.0400,0.842
49.0800,0.830
49.1200,0.812
49.1600,0.819
49.2000,0.800
49.2400,0.815
49.2800,0.799
49.3200,0.796
49.3600,0.802
49.4000,0.750
49.4400,0.770
49.4800,0.755
49.5200,0.795
49.5600,0.800
49.6000,0.785
49.6400,0.798
49.6800,0.772
49.7200,0.767
49.7600,0.765
49.8000,0.789
49.8400,0.733
49.8800,0.744
49.9200,0.764
49.9600,0.735
50.0000,0.782
50.0400,0.747
50.0800,0.755
50.1200,0.766
50.1600,0.763
50.2000,0.755
50.2400,0.750
50.2800,0.765
50.3200,0.805
50.3600,0.771
50.4000,0.744
50.4400,0.730
50.4800,0.754
50.5200,0.754
50.5600,0.752
50.6000,0.749
50.6400,0.759
50.6800,0.740
50.7200,0.726
50.7600,0.737
50.8000,0.705
50.8400,0.742
50.8800,0.721
50.9200,0.704
50.9600,0.774
51.0000,0.753
51.0400,0.700
51.0800,0.707
51.1200,0.720
51.1600,0.758
51.2000,0.743
51.2400,0.728
51.2800,0.788
51.3200,0.714
51.3600,0.685
51.4000,0.744
51.4400,0.770
51.4800,0.731
51.5200,0.729
51.5600,0.714
51.6000,0.729
51.6400,0.741
51.6800,0.736
51.7200,0.719
51.7600,0.708
51.8000,0.686
51.8400,0.681
51.8800,0.736
51.9200,0.676
51.9600,0.739
52.0000,0.729
52.0400,0.683
52.0800,0.725
52.1200,0.715
52.1600,0.644
52.2000,0.688
52.2400,0.683
52.2800,0.695
52.3200,0.707
52.3600,0.651
52.4000,0.661
52.4400,0.653
52.4800,0.710
52.5200,0.689
52.5600,0.718
52.6000,0.695
52.6400,0.713
52.6800,0.702
52.7200,0.678
52.7600,0.717
52.8000,0.700
52.8400,0.746
52.8800,0.674
52.9200,0.697
52.9600,0.755
53.0000,0.696
53.0400,0.689
53.0800,0.712
53.1200,0.668
53.1600,0.714
53.2000,0.679
53.2400,0.695
53.2800,0.682
53.3200,0.671
53.3600,0.683
53.4000,0.673
53.4400,0.681
53.4800,0.647
53.5200,0.650
53.5600,0.649
53.6000,0.650
53.6400,0.667
53.6800,0.673
53.7200,0.690
53.7600,0.693
53.8000,0.656
53.8400,0.675
53.8800,0.657
53.9200,0.659
53.9600,0.676
54.0000,0.673
54.0400,0.697
54.0800,0.645
54.1200,0.709
54.1600,0.639
54.2000,0.638
54.2400,0.609
54.2800,0.609
54.3200,0.616
54.3600,0.664
54.4000,0.660
54.4400,0.643
54.4800,0.682
54.5200,0.644
54.5600,0.659
54.6000,0.654
54.6400,0.666
54.6800,0.653
54.7200,0.647
54.7600,0.691
54.8000,0.644
54.8400,0.602
54.8800,0.595
54.9200,0.592
54.9600,0.651
55.0000,0.586
55.0400,0.594
55.0800,0.637
55.1200,0.687
55.1600,0.657
55.2000,0.658
55.2400,0.613
55.2800,0.653
55.3200,0.644
55.3600,0.593
55.4000,0.651
55.4400,0.620
55.4800,0.629
55.5200,0.644
55.5600,0.640
55.6000,0.620
55.6400,0.644
55.6800,0.608
55.7200,0.630
55.7600,0.625
55.8000,0.633
55.8400,0.626
55.8800,0.657
55.9200,0.616
55.9600,0.660
56.0000,0.669
56.0400,0.639
56.0800,0.634
56.1200,0.614
56.1600,0.596
56.2000,0.601
56.2400,0.617
56.2800,0.629
56.3200,0.614
56.3600,0.653
56.4000,0.569
56.4400,0.601
56.4800,0.599
56.5200,0.586
56.5600,0.632
56.6000,0.605
56.6400,0.616
56.6800,0.619
56.7200,0.619
56.7600,0.629
56.8000,0.593
56.8400,0.600
56.8800,0.621
56.9200,0.611
56.9600,0.591
57.0000,0.629
57.0400,0.672
57.0800,0.603
57.1200,0.591
57.1600,0.571
57.2000,0.573
57.2400,0.593
57.2800,0.601
57.3200,0.601
57.3600,0.632
57.4000,0.584
57.4400,0.629
57.4800,0.577
57.5200,0.578
57.5600,0.611
57.6000,0.621
57.6400,0.642
57.6800,0.556
57.7200,0.598
57.7600,0.544
57.8000,0.570
57.8400,0.601
57.8800,0.587
57.9200,0.597
57.9600,0.621
58.0000,0.587
58.0400,0.591
58.0800,0.576
58.1200,0.627
58.1600,0.582
58.2000,0.584
58.2400,0.571
58.2800,0.600
58.3200,0.604
58.3600,0.538
58.4000,0.608
58.4400,0.554
58.4800,0.577
58.5200,0.609
58.5600,0.559
58.6000,0.589
58.6400,0.548
58.6800,0.555
58.7200,0.550
58.7600,0.595
58.8000,0.595
58.8400,0.599
58.8800,0.606
58.9200,0.581
58.9600,0.573
59.0000,0.567
59.0400,0.551
59.0800,0.555
59.1200,0.554
59.1600,0.580
59.2000,0.570
59.2400,0.564
59.2800,0.589
59.3200,0.588
59.3600,0.618
59.4000,0.565
59.4400,0.569
59.4800,0.575
59.5200,0.580
59.5600,0.576
59.6000,0.606
59.6400,0.615
59.6800,0.589
59.7200,0.550
59.7600,0.585
59.8000,0.553
59.8400,0.562
59.8800,0.550
59.9200,0.619
59.9600,0.542
60.0000,0.533
60.0400,0.575
60.0800,0.562
60.1200,0.532
60.1600,0.547
60.2000,0.561
60.2400,0.582
60.2800,0.557
60.3200,0.521
60.3600,0.574
60.4000,0.606
60.4400,0.566
60.4800,0.538
60.5200,0.587
60.5600,0.554
60.6000,0.556
60.6400,0.540
60.6800,0.517
60.7200,0.543
60.7600,0.580
60.8000,0.510
60.8400,0.522
60.8800,0.546
60.9200,0.564
60.9600,0.568
61.0000,0.537
61.0400,0.536
61.0800,0.515
61.1200,0.557
61.1600,0.547
61.2000,0.551
61.2400,0.520
61.2800,0.542
61.3200,0.538
61.3600,0.531
61.4000,0.514
61.4400,0.515
61.4800,0.542
61.5200,0.522
61.5600,0.528
61.6000,0.551
61.6400,0.572
61.6800,0.632
61.7200,0.675
61.7600,0.572
61.8000,0.563
61.8400,0.532
61.8800,0.525
61.9200,0.503
61.9600,0.509
62.0000,0.493
62.0400,0.539
62.0800,0.519
62.1200,0.524
62.1600,0.539
62.2000,0.569
62.2400,0.492
62.2800,0.497
62.3200,0.553
62.3600,0.520
62.4000,0.520
