theta,intensity
5.0000,4.314
5.0400,4.479
5.0800,4.407
5.1200,4.304
5.1600,4.163
5.2000,4.310
5.2400,4.265
5.2800,4.255
5.3200,4.338
5.3600,4.301
5.4000,4.382
5.4400,4.269
5.4800,4.195
5.5200,4.169
5.5600,4.224
5.6000,4.258
5.6400,4.156
5.6800,4.185
5.7200,4.198
5.7600,4.331
5.8000,4.064
5.8400,4.065
5.8800,4.157
5.9200,4.085
5.9600,4.093
6.0000,4.056
6.0400,4.113
6.0800,4.074
6.1200,3.960
6.1600,4.126
6.2000,4.021
6.2400,4.062
6.2800,4.030
6.3200,4.018
6.3600,3.961
6.4000,4.004
6.4400,3.911
6.4800,3.862
6.5200,3.944
6.5600,4.008
6.6000,4.021
6.6400,3.959
6.6800,3.961
6.7200,3.976
6.7600,4.022
6.8000,4.046
6.8400,3.926
6.8800,3.899
6.9200,3.995
6.9600,3.877
7.0000,3.973
7.0400,3.907
7.0800,3.876
7.1200,3.930
7.1600,3.766
7.2000,3.926
7.2400,3.795
7.2800,3.850
7.3200,3.848
7.3600,3.869
7.4000,3.933
7.4400,3.903
7.4800,3.902
7.5200,3.890
7.5600,3.931
7.6000,3.931
7.6400,3.936
7.6800,3.885
7.7200,3.831
7.7600,3.799
7.8000,3.831
7.8400,3.895
7.8800,3.727
7.9200,3.793
7.9600,3.948
8.0000,3.912
8.0400,3.835
8.0800,3.824
8.1200,3.716
8.1600,3.824
8.2000,3.760
8.2400,3.851
8.2800,3.860
8.3200,3.697
8.3600,3.757
8.4000,3.769
8.4400,3.761
8.4800,3.792
8.5200,3.898
8.5600,3.736
8.6000,3.773
8.6400,3.704
8.6800,3.762
8.7200,3.844
8.7600,3.774
8.8000,3.784
8.8400,3.760
8.8800,3.632
8.9200,3.760
8.9600,3.701
9.0000,3.636
9.0400,3.755
9.0800,3.798
9.1200,3.766
9.1600,3.679
9.2000,3.683
9.2400,3.731
9.2800,3.735
9.3200,3.629
9.3600,3.645
9.4000,3.640
9.4400,3.760
9.4800,3.678
9.5200,3.664
9.5600,3.653
9.6000,3.620
9.6400,3.692
9.6800,3.653
9.7200,3.724
9.7600,3.704
9.8000,3.681
9.8400,3.592
9.8800,3.565
9.9200,3.578
9.9600,3.689
10.0000,3.587
10.0400,3.618
10.0800,3.563
10.1200,3.528
10.1600,3.631
10.2000,3.652
10.2400,3.523
10.2800,3.579
10.3200,3.587
10.3600,3.559
10.4000,3.624
10.4400,3.497
10.4800,3.629
10.5200,3.535
10.5600,3.558
10.6000,3.428
10.6400,3.481
10.6800,3.627
10.7200,3.479
10.7600,3.548
10.8000,3.605
10.8400,3.490
10.8800,3.525
10.9200,3.537
10.9600,3.596
11.0000,3.572
11.0400,3.468
11.0800,3.498
11.1200,3.391
11.1600,3.435
11.2000,3.497
11.2400,3.472
11.2800,3.488
11.3200,3.461
11.3600,3.467
11.4000,3.426
11.4400,3.489
11.4800,3.384
11.5200,3.437
11.5600,3.449
11.6000,3.446
11.6400,3.436
11.6800,3.451
11.7200,3.441
11.7600,3.443
11.8000,3.537
11.8400,3.421
11.8800,3.398
11.9200,3.460
11.9600,3.448
12.0000,3.369
12.0400,3.389
12.0800,3.392
12.1200,3.402
12.1600,3.293
12.2000,3.403
12.2400,3.349
12.2800,3.433
12.3200,3.367
12.3600,3.354
12.4000,3.440
12.4400,3.367
12.4800,3.357
12.5200,3.391
12.5600,3.307
12.6000,3.384
12.6400,3.347
12.6800,3.317
12.7200,3.262
12.7600,3.387
12.8000,3.425
12.8400,3.428
12.8800,3.376
12.9200,3.338
12.9600,3.288
13.0000,3.344
13.0400,3.307
13.0800,3.299
13.1200,3.275
13.1600,3.251
13.2000,3.249
13.2400,3.287
13.2800,3.326
13.3200,3.251
13.3600,3.264
13.4000,3.263
13.4400,3.302
13.4800,3.175
13.5200,3.318
13.5600,3.096
13.6000,3.297
13.6400,3.288
13.6800,3.247
13.7200,3.327
13.7600,3.291
13.8000,3.244
13.8400,3.283
13.8800,3.282
13.9200,3.229
13.9600,3.192
14.0000,3.241
14.0400,3.220
14.0800,3.222
14.1200,3.262
14.1600,3.229
14.2000,3.140
14.2400,3.161
14.2800,3.191
14.3200,3.085
14.3600,3.134
14.4000,3.186
14.4400,3.210
14.4800,3.108
14.5200,3.219
14.5600,3.120
14.6000,3.213
14.6400,3.198
14.6800,3.145
14.7200,3.094
14.7600,3.119
14.8000,3.136
14.8400,3.153
14.8800,3.165
14.9200,3.099
14.9600,3.212
15.0000,3.163
15.0400,3.137
15.0800,3.113
15.1200,3.080
15.1600,3.112
15.2000,3.111
15.2400,3.143
15.2800,3.104
15.3200,3.077
15.3600,3.100
15.4000,3.076
15.4400,3.150
15.4800,3.132
15.5200,3.047
15.5600,3.073
15.6000,3.015
15.6400,3.088
15.6800,3.111
15.7200,3.066
15.7600,3.143
15.8000,3.157
15.8400,2.990
15.8800,3.013
15.9200,3.105
15.9600,3.130
16.0000,3.062
16.0400,3.053
16.0800,3.096
16.1200,3.072
16.1600,3.047
16.2000,3.006
16.2400,3.090
16.2800,3.037
16.3200,3.049
16.3600,2.951
16.4000,3.088
16.4400,3.027
16.4800,2.957
16.5200,2.923
16.5600,3.045
16.6000,3.063
16.6400,2.972
16.6800,2.841
16.7200,3.006
16.7600,2.953
16.8000,2.914
16.8400,2.979
16.8800,3.020
16.9200,2.909
16.9600,2.931
17.0000,2.992
17.0400,3.046
17.0800,2.977
17.1200,2.863
17.1600,2.919
17.2000,2.961
17.2400,2.873
17.2800,2.943
17.3200,2.997
17.3600,2.948
17.4000,2.942
17.4400,2.912
17.4800,2.819
17.5200,2.848
17.5600,2.934
17.6000,2.948
17.6400,2.943
17.6800,2.941
17.7200,2.917
17.7600,2.858
17.8000,2.885
17.8400,2.895
17.8800,2.863
17.9200,2.888
17.9600,2.950
18.0000,2.868
18.0400,2.929
18.0800,2.841
18.1200,2.817
18.1600,2.853
18.2000,2.832
18.2400,2.833
18.2800,2.821
18.3200,2.837
18.3600,2.779
18.4000,2.800
18.4400,2.732
18.4800,2.783
18.5200,2.706
18.5600,2.822
18.6000,2.850
18.6400,2.859
18.6800,2.861
18.7200,2.742
18.7600,2.740
18.8000,2.746
18.8400,2.803
18.8800,2.798
18.9200,2.833
18.9600,2.783
19.0000,2.801
19.0400,2.835
19.0800,2.719
19.1200,2.689
19.1600,2.843
19.2000,2.764
19.2400,2.685
19.2800,2.716
19.3200,2.753
19.3600,2.752
19.4000,2.782
19.4400,2.673
19.4800,2.718
19.5200,2.722
19.5600,2.697
19.6000,2.690
19.6400,2.742
19.6800,2.702
19.7200,2.671
19.7600,2.752
19.8000,2.716
19.8400,2.694
19.8800,2.739
19.9200,2.673
19.9600,2.743
20.0000,2.668
20.0400,2.597
20.0800,2.588
20.1200,2.708
20.1600,2.659
20.2000,2.574
20.2400,2.735
20.2800,2.631
20.3200,2.706
20.3600,2.567
20.4000,2.622
20.4400,2.644
20.4800,2.598
20.5200,2.604
20.5600,2.583
20.6000,2.649
20.6400,2.668
20.6800,2.594
20.7200,2.572
20.7600,2.574
20.8000,2.671
20.8400,2.634
20.8800,2.618
20.9200,2.606
20.9600,2.605
21.0000,2.550
21.0400,2.617
21.0800,2.576
21.1200,2.573
21.1600,2.572
21.2000,2.648
21.2400,2.646
21.2800,2.637
21.3200,2.616
21.3600,2.623
21.4000,2.581
21.4400,2.683
21.4800,2.608
21.5200,2.585
21.5600,2.567
21.6000,2.616
21.6400,2.611
21.6800,2.590
21.7200,2.592
21.7600,2.487
21.8000,2.539
21.8400,2.629
21.8800,2.545
21.9200,2.630
21.9600,2.593
22.0000,2.569
22.0400,2.557
22.0800,2.602
22.1200,2.493
22.1600,2.471
22.2000,2.440
22.2400,2.532
22.2800,2.499
22.3200,2.464
22.3600,2.399
22.4000,2.533
22.4400,2.504
22.4800,2.533
22.5200,2.373
22.5600,2.403
22.6000,2.427
22.6400,2.438
22.6800,2.383
22.7200,2.449
22.7600,2.448
22.8000,2.401
22.8400,2.428
22.8800,2.455
22.9200,2.413
22.9600,2.434
23.0000,2.456
23.0400,2.462
23.0800,2.408
23.1200,2.469
23.1600,2.427
23.2000,2.399
23.2400,2.501
23.2800,2.408
23.3200,2.319
23.3600,2.441
23.4000,2.381
23.4400,2.475
23.4800,2.329
23.5200,2.397
23.5600,2.348
23.6000,2.378
23.6400,2.303
23.6800,2.347
23.7200,2.304
23.7600,2.274
23.8000,2.285
23.8400,2.385
23.8800,2.215
23.9200,2.384
23.9600,2.213
24.0000,2.303
24.0400,2.256
24.0800,2.252
24.1200,2.379
24.1600,2.346
24.2000,2.287
24.2400,2.327
24.2800,2.246
24.3200,2.325
24.3600,2.280
24.4000,2.278
24.4400,2.309
24.4800,2.292
24.5200,2.338
24.5600,2.286
24.6000,2.240
24.6400,2.312
24.6800,2.241
24.7200,2.324
24.7600,2.314
24.8000,2.165
24.8400,2.286
24.8800,2.264
24.9200,2.175
24.9600,2.188
25.0000,2.248
25.0400,2.279
25.0800,2.182
25.1200,2.153
25.1600,2.163
25.2000,2.153
25.2400,2.275
25.2800,2.250
25.3200,2.207
25.3600,2.202
25.4000,2.188
25.4400,2.224
25.4800,2.142
25.5200,2.186
25.5600,2.152
25.6000,2.125
25.6400,2.183
25.6800,2.101
25.7200,2.128
25.7600,2.048
25.8000,2.144
25.8400,2.118
25.8800,2.129
25.9200,2.141
25.9600,2.160
26.0000,2.094
26.0400,2.167
26.0800,2.174
26.1200,2.120
26.1600,2.093
26.2000,2.123
26.2400,2.169
26.2800,2.106
26.3200,2.128
26.3600,2.174
26.4000,2.199
26.4400,2.097
26.4800,2.124
26.5200,2.123
26.5600,2.069
26.6000,2.145
26.6400,2.083
26.6800,2.090
26.7200,2.093
26.7600,2.117
26.8000,2.079
26.8400,2.122
26.8800,2.061
26.9200,2.031
26.9600,2.048
27.0000,2.058
27.0400,2.075
27.0800,2.073
27.1200,2.096
27.1600,2.010
27.2000,2.091
27.2400,2.053
27.2800,2.090
27.3200,2.084
27.3600,2.024
27.4000,1.995
27.4400,2.084
27.4800,2.066
27.5200,2.027
27.5600,2.037
27.6000,2.004
27.6400,2.045
27.6800,2.073
27.7200,1.948
27.7600,2.041
27.8000,2.025
27.8400,1.935
27.8800,2.013
27.9200,1.939
27.9600,2.016
28.0000,2.029
28.0400,1.973
28.0800,1.953
28.1200,1.928
28.1600,1.953
28.2000,1.999
28.2400,1.973
28.2800,2.095
28.3200,2.026
28.3600,1.884
28.4000,1.980
28.4400,1.975
28.4800,1.938
28.5200,2.019
28.5600,2.006
28.6000,1.951
28.6400,1.956
28.6800,1.892
28.7200,1.939
28.7600,1.878
28.8000,1.895
28.8400,1.970
28.8800,1.937
28.9200,1.922
28.9600,1.927
29.0000,1.911
29.0400,1.818
29.0800,2.126
29.1200,1.937
29.1600,1.877
29.2000,1.938
29.2400,1.919
29.2800,1.912
29.3200,1.918
29.3600,1.938
29.4000,1.856
29.4400,1.920
29.4800,1.896
29.5200,1.975
29.5600,1.897
29.6000,1.932
29.6400,1.906
29.6800,1.843
29.7200,1.992
29.7600,1.955
29.8000,1.890
29.8400,1.910
29.8800,1.944
29.9200,1.959
29.9600,1.967
30.0000,2.014
30.0400,1.842
30.0800,1.946
30.1200,2.021
30.1600,2.049
30.2000,2.038
30.2400,2.050
30.2800,2.068
30.3200,2.073
30.3600,2.116
30.4000,2.194
30.4400,2.277
30.4800,2.249
30.5200,2.316
30.5600,2.267
30.6000,2.281
30.6400,2.374
30.6800,2.202
30.7200,2.341
30.7600,2.286
30.8000,2.227
30.8400,2.188
30.8800,2.135
30.9200,2.105
30.9600,2.117
31.0000,2.086
31.0400,2.012
31.0800,1.871
31.1200,1.961
31.1600,1.943
31.2000,1.922
31.2400,1.888
31.2800,1.818
31.3200,1.756
31.3600,1.905
31.4000,1.844
31.4400,1.840
31.4800,1.694
31.5200,1.754
31.5600,1.788
31.6000,1.799
31.6400,1.854
31.6800,1.795
31.7200,1.696
31.7600,1.787
31.8000,1.835
31.8400,1.745
31.8800,1.774
31.9200,1.820
31.9600,1.740
32.0000,1.762
32.0400,1.693
32.0800,1.699
32.1200,1.734
32.1600,1.736
32.2000,1.788
32.2400,1.707
32.2800,1.632
32.3200,1.682
32.3600,1.649
32.4000,1.674
32.4400,1.708
32.4800,1.804
32.5200,1.699
32.5600,1.710
32.6000,1.594
32.6400,1.701
32.6800,1.663
32.7200,1.669
32.7600,1.724
32.8000,1.683
32.8400,1.692
32.8800,1.645
32.9200,1.696
32.9600,1.595
33.0000,1.654
33.0400,1.648
33.0800,1.628
33.1200,1.683
33.1600,1.682
33.2000,1.684
33.2400,1.600
33.2800,1.689
33.3200,1.692
33.3600,1.689
33.4000,1.650
33.4400,1.608
33.4800,1.632
33.5200,1.598
33.5600,1.628
33.6000,1.543
33.6400,1.662
33.6800,1.610
33.7200,1.598
33.7600,1.641
33.8000,1.607
33.8400,1.596
33.8800,1.578
33.9200,1.575
33.9600,1.572
34.0000,1.578
34.0400,1.613
34.0800,1.571
34.1200,1.610
34.1600,1.602
34.2000,1.565
34.2400,1.596
34.2800,1.594
34.3200,1.622
34.3600,1.586
34.4000,1.601
34.4400,1.629
34.4800,1.541
34.5200,1.595
34.5600,1.557
34.6000,1.525
34.6400,1.588
34.6800,1.559
34.7200,1.525
34.7600,1.619
34.8000,1.584
34.8400,1.570
34.8800,1.617
34.9200,1.616
34.9600,1.550
35.0000,1.615
35.0400,1.620
35.0800,1.598
35.1200,1.605
35.1600,1.601
35.2000,1.640
35.2400,1.654
35.2800,1.592
35.3200,1.651
35.3600,1.694
35.4000,1.670
35.4400,1.717
35.4800,1.736
35.5200,1.703
35.5600,1.756
35.6000,1.718
35.6400,1.728
35.6800,1.803
35.7200,1.751
35.7600,1.777
35.8000,1.850
35.8400,1.822
35.8800,1.812
35.9200,1.798
35.9600,1.807
36.0000,1.769
36.0400,1.809
36.0800,1.732
36.1200,1.821
36.1600,1.795
36.2000,1.807
36.2400,1.714
36.2800,1.713
36.3200,1.778
36.3600,1.752
36.4000,1.800
36.4400,1.776
36.4800,1.782
36.5200,1.786
36.5600,1.741
36.6000,1.759
36.6400,1.773
36.6800,1.709
36.7200,1.745
36.7600,1.746
36.8000,1.802
36.8400,1.815
36.8800,1.843
36.9200,1.789
36.9600,1.787
37.0000,1.874
37.0400,1.887
37.0800,1.863
37.1200,1.951
37.1600,2.004
37.2000,2.019
37.2400,2.085
37.2800,2.007
37.3200,2.099
37.3600,2.153
37.4000,2.224
37.4400,2.383
37.4800,2.421
37.5200,2.437
37.5600,2.695
37.6000,2.796
37.6400,3.113
37.6800,3.294
37.7200,3.669
37.7600,4.014
37.8000,4.453
37.8400,5.134
37.8800,5.855
37.9200,6.643
37.9600,7.469
38.0000,8.649
38.0400,9.420
38.0800,10.076
38.1200,10.133
38.1600,10.142
38.2000,9.437
38.2400,8.679
38.2800,7.869
38.3200,6.917
38.3600,6.268
38.4000,5.453
38.4400,4.926
38.4800,4.353
38.5200,3.942
38.5600,3.497
38.6000,3.363
38.6400,3.104
38.6800,2.930
38.7200,2.845
38.7600,2.645
38.8000,2.534
38.8400,2.419
38.8800,2.367
38.9200,2.311
38.9600,2.259
39.0000,2.157
39.0400,2.061
39.0800,2.003
39.1200,1.921
39.1600,1.954
39.2000,1.923
39.2400,1.919
39.2800,1.849
39.3200,1.796
39.3600,1.739
39.4000,1.834
39.4400,1.817
39.4800,1.743
39.5200,1.731
39.5600,1.771
39.6000,1.716
39.6400,1.709
39.6800,1.662
39.7200,1.657
39.7600,1.670
39.8000,1.661
39.8400,1.677
39.8800,1.681
39.9200,1.633
39.9600,1.702
40.0000,1.621
40.0400,1.611
40.0800,1.619
40.1200,1.593
40.1600,1.647
40.2000,1.573
40.2400,1.662
40.2800,1.618
40.3200,1.619
40.3600,1.543
40.4000,1.587
40.4400,1.606
40.4800,1.536
40.5200,1.580
40.5600,1.552
40.6000,1.540
40.6400,1.609
40.6800,1.506
40.7200,1.562
40.7600,1.563
40.8000,1.551
40.8400,1.583
40.8800,1.525
40.9200,1.492
40.9600,1.518
41.0000,1.518
41.0400,1.487
41.0800,1.510
41.1200,1.524
41.1600,1.468
41.2000,1.457
41.2400,1.485
41.2800,1.518
41.3200,1.467
41.3600,1.425
41.4000,1.434
41.4400,1.518
41.4800,1.455
41.5200,1.437
41.5600,1.405
41.6000,1.374
41.6400,1.382
41.6800,1.363
41.7200,1.388
41.7600,1.383
41.8000,1.406
41.8400,1.506
41.8800,1.422
41.9200,1.356
41.9600,1.380
42.0000,1.373
42.0400,1.391
42.0800,1.387
42.1200,1.400
42.1600,1.408
42.2000,1.364
42.2400,1.399
42.2800,1.338
42.3200,1.346
42.3600,1.350
42.4000,1.365
42.4400,1.344
42.4800,1.414
42.5200,1.356
42.5600,1.316
42.6000,1.344
42.6400,1.357
42.6800,1.380
42.7200,1.382
42.7600,1.430
42.8000,1.306
42.8400,1.385
42.8800,1.354
42.9200,1.349
42.9600,1.398
43.0000,1.350
43.0400,1.462
43.0800,1.376
43.1200,1.450
43.1600,1.406
43.2000,1.422
43.2400,1.458
43.2800,1.478
43.3200,1.523
43.3600,1.519
43.4000,1.497
43.4400,1.577
43.4800,1.528
43.5200,1.609
43.5600,1.625
43.6000,1.640
43.6400,1.706
43.6800,1.681
43.7200,1.760
43.7600,1.927
43.8000,1.883
43.8400,2.006
43.8800,2.027
43.9200,2.146
43.9600,2.278
44.0000,2.333
44.0400,2.434
44.0800,2.502
44.1200,2.563
44.1600,2.709
44.2000,2.850
44.2400,2.838
44.2800,2.853
44.3200,2.761
44.3600,2.752
44.4000,2.745
44.4400,2.668
44.4800,2.506
44.5200,2.443
44.5600,2.347
44.6000,2.181
44.6400,2.019
44.6800,1.963
44.7200,1.942
44.7600,1.823
44.8000,1.731
44.8400,1.691
44.8800,1.629
44.9200,1.642
44.9600,1.532
45.0000,1.419
45.0400,1.400
45.0800,1.400
45.1200,1.363
45.1600,1.349
45.2000,1.293
45.2400,1.278
45.2800,1.208
45.3200,1.227
45.3600,1.185
45.4000,1.154
45.4400,1.174
45.4800,1.176
45.5200,1.219
45.5600,1.221
45.6000,1.121
45.6400,1.147
45.6800,1.100
45.7200,1.095
45.7600,1.100
45.8000,1.126
45.8400,1.061
45.8800,1.057
45.9200,1.069
45.9600,1.054
46.0000,1.043
46.0400,1.017
46.0800,1.058
46.1200,1.020
46.1600,1.049
46.2000,1.029
46.2400,1.034
46.2800,1.052
46.3200,1.037
46.3600,0.981
46.4000,0.997
46.4400,0.993
46.4800,0.993
46.5200,0.986
46.5600,0.976
46.6000,0.993
46.6400,0.982
46.6800,0.993
46.7200,0.959
46.7600,0.974
46.8000,0.949
46.8400,0.918
46.8800,0.931
46.9200,0.927
46.9600,0.939
47.0000,0.976
47.0400,0.925
47.0800,0.948
47.1200,0.922
47.1600,0.930
47.2000,0.975
47.2400,0.904
47.2800,0.930
47.3200,0.925
47.3600,0.924
47.4000,0.937
47.4400,0.908
47.4800,0.923
47.5200,0.948
47.5600,0.944
47.6000,0.898
47.6400,0.916
47.6800,0.889
47.7200,0.926
47.7600,0.911
47.8000,0.972
47.8400,0.913
47.8800,0.926
47.9200,0.890
47.9600,0.895
48.0000,0.848
48.0400,0.868
48.0800,0.864
48.1200,0.898
48.1600,0.862
48.2000,0.878
48.2400,0.836
48.2800,0.854
48.3200,0.904
48.3600,0.833
48.4000,0.883
48.4400,0.865
48.4800,0.861
48.5200,0.850
48.5600,0.907
48.6000,0.860
48.6400,0.924
48.6800,0.849
48.7200,0.890
48.7600,0.856
48.8000,0.882
48.8400,0.905
48.8800,0.868
48.9200,0.909
48.9600,0.872
49.0000,0.850
49.0400,0.919
49.0800,0.833
49.1200,0.827
49.1600,0.860
49.2000,0.857
49.2400,0.866
49.2800,0.884
49.3200,0.854
49.3600,0.861
49.4000,0.849
49.4400,0.801
49.4800,0.895
49.5200,0.876
49.5600,0.810
49.6000,0.790
49.6400,0.839
49.6800,0.864
49.7200,0.840
49.7600,0.831
49.8000,0.858
49.8400,0.831
49.8800,0.836
49.9200,0.842
49.9600,0.796
50.0000,0.823
50.0400,0.860
50.0800,0.828
50.1200,0.828
50.1600,0.818
50.2000,0.789
50.2400,0.788
50.2800,0.834
50.3200,0.806
50.3600,0.776
50.4000,0.809
50.4400,0.819
50.4800,0.835
50.5200,0.830
50.5600,0.866
50.6000,0.857
50.6400,0.836
50.6800,0.819
50.7200,0.881
50.7600,0.851
50.8000,0.862
50.8400,0.859
50.8800,0.912
50.9200,0.817
50.9600,0.901
51.0000,0.896
51.0400,0.904
51.0800,0.902
51.1200,0.909
51.1600,0.917
51.2000,0.876
51.2400,0.968
51.2800,0.922
51.3200,0.879
51.3600,0.864
51.4000,0.855
51.4400,0.845
51.4800,0.852
51.5200,0.891
51.5600,0.830
51.6000,0.810
51.6400,0.808
51.6800,0.818
51.7200,0.804
51.7600,0.783
51.8000,0.797
51.8400,0.789
51.8800,0.778
51.9200,0.785
51.9600,0.758
52.0000,0.714
52.0400,0.793
52.0800,0.734
52.1200,0.745
52.1600,0.726
52.2000,0.731
52.2400,0.742
52.2800,0.753
52.3200,0.765
52.3600,0.766
52.4000,0.751
52.4400,0.715
52.4800,0.750
52.5200,0.714
52.5600,0.728
52.6000,0.738
52.6400,0.737
52.6800,0.753
52.7200,0.752
52.7600,0.723
52.8000,0.759
52.8400,0.783
52.8800,0.756
52.9200,0.764
52.9600,0.714
53.0000,0.733
53.0400,0.737
53.0800,0.721
53.1200,0.747
53.1600,0.700
53.2000,0.733
53.2400,0.733
53.2800,0.712
53.3200,0.708
53.3600,0.734
53.4000,0.677
53.4400,0.727
53.4800,0.692
53.5200,0.722
53.5600,0.755
53.6000,0.715
53.6400,0.688
53.6800,0.688
53.7200,0.671
53.7600,0.717
53.8000,0.672
53.8400,0.675
53.8800,0.686
53.9200,0.717
53.9600,0.715
54.0000,0.725
54.0400,0.713
54.0800,0.714
54.1200,0.732
54.1600,0.690
54.2000,0.696
54.2400,0.670
54.2800,0.699
54.3200,0.698
54.3600,0.682
54.4000,0.640
54.4400,0.703
54.4800,0.705
54.5200,0.667
54.5600,0.673
54.6000,0.634
54.6400,0.681
54.6800,0.669
54.7200,0.667
54.7600,0.692
54.8000,0.691
54.8400,0.683
54.8800,0.715
54.9200,0.672
54.9600,0.681
55.0000,0.677
55.0400,0.693
55.0800,0.643
55.1200,0.665
55.1600,0.727
55.2000,0.732
55.2400,0.705
55.2800,0.625
55.3200,0.673
55.3600,0.654
55.4000,0.668
55.4400,0.660
55.4800,0.664
55.5200,0.690
55.5600,0.705
55.6000,0.642
55.6400,0.654
55.6800,0.650
55.7200,0.678
55.7600,0.653
55.8000,0.688
55.8400,0.722
55.8800,0.628
55.9200,0.638
55.9600,0.665
56.0000,0.668
56.0400,0.673
56.0800,0.617
56.1200,0.717
56.1600,0.679
56.2000,0.693
56.2400,0.699
56.2800,0.679
56.3200,0.695
56.3600,0.646
56.4000,0.680
56.4400,0.688
56.4800,0.653
56.5200,0.675
56.5600,0.654
56.6000,0.654
56.6400,0.672
56.6800,0.634
56.7200,0.665
56.7600,0.663
56.8000,0.616
56.8400,0.614
56.8800,0.625
56.9200,0.658
56.9600,0.643
57.0000,0.655
57.0400,0.645
57.0800,0.682
57.1200,0.634
57.1600,0.649
57.2000,0.634
57.2400,0.664
57.2800,0.642
57.3200,0.604
57.3600,0.641
57.4000,0.627
57.4400,0.624
57.4800,0.603
57.5200,0.650
57.5600,0.673
57.6000,0.631
57.6400,0.620
57.6800,0.660
57.7200,0.591
57.7600,0.660
57.8000,0.642
57.8400,0.624
57.8800,0.602
57.9200,0.667
57.9600,0.661
58.0000,0.567
58.0400,0.632
58.0800,0.658
58.1200,0.656
58.1600,0.639
58.2000,0.655
58.2400,0.627
58.2800,0.635
58.3200,0.607
58.3600,0.617
58.4000,0.596
58.4400,0.621
58.4800,0.638
58.5200,0.611
58.5600,0.637
58.6000,0.590
58.6400,0.610
58.6800,0.612
58.7200,0.623
58.7600,0.615
58.8000,0.602
58.8400,0.609
58.8800,0.617
58.9200,0.640
58.9600,0.635
59.0000,0.575
59.0400,0.607
59.0800,0.637
59.1200,0.611
59.1600,0.587
59.2000,0.649
59.2400,0.647
59.2800,0.623
59.3200,0.659
59.3600,0.627
59.4000,0.626
59.4400,0.636
59.4800,0.608
59.5200,0.611
59.5600,0.633
59.6000,0.597
59.6400,0.577
59.6800,0.605
59.7200,0.607
59.7600,0.598
59.8000,0.586
59.8400,0.615
59.8800,0.625
59.9200,0.615
59.9600,0.641
60.0000,0.624
60.0400,0.611
60.0800,0.626
60.1200,0.614
60.1600,0.647
60.2000,0.603
60.2400,0.655
60.2800,0.667
60.3200,0.637
60.3600,0.614
60.4000,0.583
60.4400,0.619
60.4800,0.636
60.5200,0.656
60.5600,0.642
60.6000,0.647
60.6400,0.674
60.6800,0.641
60.7200,0.622
60.7600,0.686
60.8000,0.641
60.8400,0.643
60.8800,0.653
60.9200,0.673
60.9600,0.650
61.0000,0.659
61.0400,0.642
61.0800,0.646
61.1200,0.590
61.1600,0.600
61.2000,0.636
61.2400,0.620
61.2800,0.602
61.3200,0.594
61.3600,0.576
61.4000,0.573
61.4400,0.598
61.4800,0.590
61.5200,0.591
61.5600,0.602
61.6000,0.547
61.6400,0.599
61.6800,0.617
61.7200,0.642
61.7600,0.711
61.8000,0.664
61.8400,0.618
61.8800,0.635
61.9200,0.592
61.9600,0.599
62.0000,0.564
62.0400,0.636
62.0800,0.581
62.1200,0.593
62.1600,0.591
62.2000,0.592
62.2400,0.578
62.2800,0.645
62.3200,0.621
62.3600,0.584
62.4000,0.580
