theta,intensity
5.0000,6.579
5.0400,6.624
5.0800,6.538
5.1200,6.604
5.1600,6.509
5.2000,6.631
5.2400,6.442
5.2800,6.184
5.3200,6.161
5.3600,6.136
5.4000,6.119
5.4400,6.048
5.4800,5.877
5.5200,5.867
5.5600,5.847
5.6000,5.685
5.6400,5.545
5.6800,5.382
5.7200,5.286
5.7600,5.137
5.8000,5.161
5.8400,5.119
5.8800,4.864
5.9200,4.814
5.9600,4.767
6.0000,4.744
6.0400,4.657
6.0800,4.682
6.1200,4.713
6.1600,4.530
6.2000,4.478
6.2400,4.562
6.2800,4.518
6.3200,4.339
6.3600,4.402
6.4000,4.313
6.4400,4.373
6.4800,4.396
6.5200,4.267
6.5600,4.301
6.6000,4.212
6.6400,4.212
6.6800,4.194
6.7200,4.193
6.7600,4.237
6.8000,4.145
6.8400,4.085
6.8800,4.052
6.9200,4.134
6.9600,4.125
7.0000,4.124
7.0400,4.117
7.0800,4.064
7.1200,4.223
7.1600,4.134
7.2000,4.059
7.2400,4.033
7.2800,3.972
7.3200,4.135
7.3600,3.953
7.4000,4.005
7.4400,3.965
7.4800,4.021
7.5200,4.071
7.5600,3.902
7.6000,4.020
7.6400,4.009
7.6800,3.934
7.7200,3.954
7.7600,3.908
7.8000,3.961
7.8400,3.870
7.8800,4.013
7.9200,3.943
7.9600,4.000
8.0000,3.979
8.0400,3.919
8.0800,3.927
8.1200,3.934
8.1600,3.788
8.2000,3.823
8.2400,3.853
8.2800,3.945
8.3200,3.956
8.3600,3.938
8.4000,3.969
8.4400,3.862
8.4800,3.718
8.5200,3.873
8.5600,3.926
8.6000,3.866
8.6400,3.780
8.6800,3.900
8.7200,3.807
8.7600,3.832
8.8000,3.878
8.8400,3.870
8.8800,3.745
8.9200,3.794
8.9600,3.838
9.0000,3.747
9.0400,3.770
9.0800,3.753
9.1200,3.745
9.1600,3.695
9.2000,3.879
9.2400,3.746
9.2800,3.709
9.3200,3.715
9.3600,3.801
9.4000,3.693
9.4400,3.693
9.4800,3.654
9.5200,3.688
9.5600,3.765
9.6000,3.750
9.6400,3.772
9.6800,3.742
9.7200,3.695
9.7600,3.689
9.8000,3.691
9.8400,3.633
9.8800,3.623
9.9200,3.669
9.9600,3.757
10.0000,3.711
10.0400,3.754
10.0800,3.685
10.1200,3.576
10.1600,3.731
10.2000,3.749
10.2400,3.612
10.2800,3.612
10.3200,3.592
10.3600,3.769
10.4000,3.697
10.4400,3.615
10.4800,3.661
10.5200,3.671
10.5600,3.589
10.6000,3.575
10.6400,3.607
10.6800,3.636
10.7200,3.641
10.7600,3.618
10.8000,3.601
10.8400,3.531
10.8800,3.573
10.9200,3.512
10.9600,3.621
11.0000,3.600
11.0400,3.547
11.0800,3.568
11.1200,3.443
11.1600,3.516
11.2000,3.551
11.2400,3.603
11.2800,3.557
11.3200,3.611
11.3600,3.462
11.4000,3.521
11.4400,3.494
11.4800,3.524
11.5200,3.455
11.5600,3.538
11.6000,3.524
11.6400,3.508
11.6800,3.503
11.7200,3.446
11.7600,3.459
11.8000,3.372
11.8400,3.481
11.8800,3.407
11.9200,3.568
11.9600,3.423
12.0000,3.559
12.0400,3.478
12.0800,3.393
12.1200,3.504
12.1600,3.395
12.2000,3.374
12.2400,3.496
12.2800,3.418
12.3200,3.500
12.3600,3.450
12.4000,3.461
12.4400,3.432
12.4800,3.415
12.5200,3.502
12.5600,3.535
12.6000,3.372
12.6400,3.472
12.6800,3.340
12.7200,3.423
12.7600,3.416
12.8000,3.275
12.8400,3.274
12.8800,3.420
12.9200,3.361
12.9600,3.364
13.0000,3.435
13.0400,3.412
13.0800,3.362
13.1200,3.439
13.1600,3.283
13.2000,3.326
13.2400,3.345
13.2800,3.290
13.3200,3.356
13.3600,3.331
13.4000,3.302
13.4400,3.326
13.4800,3.399
13.5200,3.218
13.5600,3.305
13.6000,3.343
13.6400,3.377
13.6800,3.369
13.7200,3.314
13.7600,3.259
13.8000,3.426
13.8400,3.191
13.8800,3.275
13.9200,3.250
13.9600,3.382
14.0000,3.265
14.0400,3.221
14.0800,3.370
14.1200,3.301
14.1600,3.201
14.2000,3.230
14.2400,3.105
14.2800,3.250
14.3200,3.160
14.3600,3.250
14.4000,3.284
14.4400,3.275
14.4800,3.157
14.5200,3.203
14.5600,3.200
14.6000,3.191
14.6400,3.236
14.6800,3.330
14.7200,3.228
14.7600,3.231
14.8000,3.193
14.8400,3.138
14.8800,3.152
14.9200,3.108
14.9600,3.117
15.0000,3.111
15.0400,3.139
15.0800,3.303
15.1200,3.149
15.1600,3.161
15.2000,3.154
15.2400,3.172
15.2800,3.150
15.3200,3.113
15.3600,3.110
15.4000,3.126
15.4400,3.087
15.4800,3.183
15.5200,3.036
15.5600,3.099
15.6000,3.084
15.6400,3.064
15.6800,3.124
15.7200,3.214
15.7600,3.000
15.8000,3.051
15.8400,3.135
15.8800,3.107
15.9200,3.133
15.9600,3.066
16.0000,3.054
16.0400,3.140
16.0800,3.019
16.1200,2.969
16.1600,3.122
16.2000,3.191
16.2400,3.151
16.2800,3.159
16.3200,3.044
16.3600,3.075
16.4000,2.956
16.4400,3.074
16.4800,3.004
16.5200,3.016
16.5600,3.011
16.6000,3.003
16.6400,2.918
16.6800,2.972
16.7200,2.993
16.7600,3.011
16.8000,2.992
16.8400,3.096
16.8800,3.072
16.9200,2.984
16.9600,3.018
17.0000,2.929
17.0400,2.955
17.0800,3.000
17.1200,2.987
17.1600,2.986
17.2000,2.966
17.2400,2.887
17.2800,2.905
17.3200,2.975
17.3600,2.916
17.4000,3.045
17.4400,3.026
17.4800,2.979
17.5200,2.933
17.5600,2.871
17.6000,2.873
17.6400,2.859
17.6800,2.898
17.7200,2.905
17.7600,2.891
17.8000,2.830
17.8400,2.891
17.8800,2.872
17.9200,2.904
17.9600,2.867
18.0000,2.920
18.0400,2.865
18.0800,2.894
18.1200,2.888
18.1600,2.888
18.2000,2.932
18.2400,2.855
18.2800,2.872
18.3200,2.871
18.3600,2.876
18.4000,2.817
18.4400,2.881
18.4800,2.841
18.5200,2.920
18.5600,2.856
18.6000,2.851
18.6400,2.863
18.6800,2.803
18.7200,2.785
18.7600,2.742
18.8000,2.778
18.8400,2.745
18.8800,2.744
18.9200,2.715
18.9600,2.741
19.0000,2.753
19.0400,2.807
19.0800,2.817
19.1200,2.733
19.1600,2.757
19.2000,2.705
19.2400,2.790
19.2800,2.820
19.3200,2.821
19.3600,2.720
19.4000,2.671
19.4400,2.717
19.4800,2.804
19.5200,2.818
19.5600,2.826
19.6000,2.740
19.6400,2.717
19.6800,2.779
19.7200,2.760
19.7600,2.770
19.8000,2.762
19.8400,2.730
19.8800,2.794
19.9200,2.696
19.9600,2.764
20.0000,2.697
20.0400,2.669
20.0800,2.714
20.1200,2.657
20.1600,2.591
20.2000,2.680
20.2400,2.652
20.2800,2.765
20.3200,2.660
20.3600,2.624
20.4000,2.661
20.4400,2.622
20.4800,2.584
20.5200,2.605
20.5600,2.689
20.6000,2.728
20.6400,2.639
20.6800,2.686
20.7200,2.699
20.7600,2.604
20.8000,2.643
20.8400,2.668
20.8800,2.590
20.9200,2.563
20.9600,2.613
21.0000,2.628
21.0400,2.532
21.0800,2.584
21.1200,2.569
21.1600,2.551
21.2000,2.591
21.2400,2.614
21.2800,2.510
21.3200,2.604
21.3600,2.583
21.4000,2.546
21.4400,2.610
21.4800,2.581
21.5200,2.594
21.5600,2.577
21.6000,2.559
21.6400,2.517
21.6800,2.538
21.7200,2.623
21.7600,2.594
21.8000,2.553
21.8400,2.573
21.8800,2.492
21.9200,2.524
21.9600,2.550
22.0000,2.518
22.0400,2.567
22.0800,2.461
22.1200,2.470
22.1600,2.600
22.2000,2.472
22.2400,2.462
22.2800,2.525
22.3200,2.561
22.3600,2.513
22.4000,2.449
22.4400,2.375
22.4800,2.493
22.5200,2.484
22.5600,2.499
22.6000,2.445
22.6400,2.529
22.6800,2.489
22.7200,2.479
22.7600,2.429
22.8000,2.416
22.8400,2.465
22.8800,2.438
22.9200,2.372
22.9600,2.430
23.0000,2.389
23.0400,2.467
23.0800,2.433
23.1200,2.405
23.1600,2.454
23.2000,2.416
23.2400,2.374
23.2800,2.489
23.3200,2.416
23.3600,2.387
23.4000,2.325
23.4400,2.420
23.4800,2.341
23.5200,2.337
23.5600,2.452
23.6000,2.401
23.6400,2.354
23.6800,2.399
23.7200,2.414
23.7600,2.269
23.8000,2.261
23.8400,2.380
23.8800,2.433
23.9200,2.326
23.9600,2.301
24.0000,2.345
24.0400,2.360
24.0800,2.375
24.1200,2.360
24.1600,2.290
24.2000,2.240
24.2400,2.328
24.2800,2.279
24.3200,2.289
24.3600,2.307
24.4000,2.331
24.4400,2.360
24.4800,2.383
24.5200,2.285
24.5600,2.373
24.6000,2.346
24.6400,2.420
24.6800,2.224
24.7200,2.306
24.7600,2.244
24.8000,2.259
24.8400,2.244
24.8800,2.248
24.9200,2.247
24.9600,2.250
25.0000,2.239
25.0400,2.310
25.0800,2.254
25.1200,2.200
25.1600,2.182
25.2000,2.177
25.2400,2.234
25.2800,2.180
25.3200,2.209
25.3600,2.240
25.4000,2.167
25.4400,2.233
25.4800,2.189
25.5200,2.228
25.5600,2.188
25.6000,2.237
25.6400,2.119
25.6800,2.235
25.7200,2.221
25.7600,2.218
25.8000,2.154
25.8400,2.208
25.8800,2.143
25.9200,2.200
25.9600,2.132
26.0000,2.189
26.0400,2.183
26.0800,2.204
26.1200,2.094
26.1600,2.155
26.2000,2.164
26.2400,2.183
26.2800,2.095
26.3200,2.134
26.3600,2.145
26.4000,2.092
26.4400,2.112
26.4800,2.127
26.5200,2.236
26.5600,2.139
26.6000,2.098
26.6400,2.169
26.6800,2.095
26.7200,2.031
26.7600,2.145
26.8000,2.101
26.8400,2.012
26.8800,2.134
26.9200,2.086
26.9600,2.126
27.0000,2.078
27.0400,2.120
27.0800,2.055
27.1200,2.116
27.1600,2.121
27.2000,2.116
27.2400,2.040
27.2800,2.072
27.3200,2.002
27.3600,2.120
27.4000,2.073
27.4400,2.026
27.4800,2.068
27.5200,2.080
27.5600,2.048
27.6000,2.092
27.6400,2.086
27.6800,2.080
27.7200,2.122
27.7600,2.063
27.8000,2.003
27.8400,2.090
27.8800,2.045
27.9200,2.032
27.9600,2.057
28.0000,2.011
28.0400,2.006
28.0800,1.979
28.1200,1.999
28.1600,1.996
28.2000,2.049
28.2400,2.004
28.2800,1.969
28.3200,1.899
28.3600,1.984
28.4000,2.009
28.4400,2.028
28.4800,1.979
28.5200,1.940
28.5600,1.910
28.6000,1.964
28.6400,1.975
28.6800,1.943
28.7200,2.050
28.7600,1.999
28.8000,1.965
28.8400,1.969
28.8800,1.964
28.9200,1.932
28.9600,1.950
29.0000,1.959
29.0400,1.923
29.0800,2.006
29.1200,1.914
29.1600,1.928
29.2000,1.942
29.2400,1.934
29.2800,1.968
29.3200,1.881
29.3600,1.919
29.4000,1.938
29.4400,1.933
29.4800,1.938
29.5200,1.878
29.5600,1.952
29.6000,1.912
29.6400,1.954
29.6800,1.892
29.7200,1.909
29.7600,1.854
29.8000,1.871
29.8400,1.922
29.8800,1.908
29.9200,1.941
29.9600,1.845
30.0000,1.767
30.0400,1.889
30.0800,1.824
30.1200,1.891
30.1600,1.800
30.2000,1.892
30.2400,1.884
30.2800,1.841
30.3200,1.840
30.3600,1.779
30.4000,1.781
30.4400,1.850
30.4800,1.880
30.5200,1.803
30.5600,1.788
30.6000,1.758
30.6400,1.782
30.6800,1.840
30.7200,1.799
30.7600,1.777
30.8000,1.785
30.8400,1.882
30.8800,1.898
30.9200,1.851
30.9600,1.801
31.0000,1.796
31.0400,1.846
31.0800,1.787
31.1200,1.762
31.1600,1.722
31.2000,1.740
31.2400,1.759
31.2800,1.826
31.3200,1.787
31.3600,1.799
31.4000,1.720
31.4400,1.775
31.4800,1.760
31.5200,1.716
31.5600,1.789
31.6000,1.805
31.6400,1.711
31.6800,1.681
31.7200,1.740
31.7600,1.689
31.8000,1.786
31.8400,1.670
31.8800,1.730
31.9200,1.798
31.9600,1.655
32.0000,1.696
32.0400,1.650
32.0800,1.709
32.1200,1.683
32.1600,1.714
32.2000,1.692
32.2400,1.710
32.2800,1.686
32.3200,1.735
32.3600,1.723
32.4000,1.695
32.4400,1.734
32.4800,1.754
32.5200,1.691
32.5600,1.669
32.6000,1.672
32.6400,1.607
32.6800,1.678
32.7200,1.649
32.7600,1.691
32.8000,1.713
32.8400,1.804
32.8800,1.691
32.9200,1.598
32.9600,1.618
33.0000,1.740
33.0400,1.603
33.0800,1.718
33.1200,1.717
33.1600,1.660
33.2000,1.665
33.2400,1.681
33.2800,1.629
33.3200,1.701
33.3600,1.653
33.4000,1.651
33.4400,1.659
33.4800,1.662
33.5200,1.682
33.5600,1.628
33.6000,1.595
33.6400,1.611
33.6800,1.641
33.7200,1.660
33.7600,1.611
33.8000,1.665
33.8400,1.645
33.8800,1.676
33.9200,1.675
33.9600,1.668
34.0000,1.608
34.0400,1.579
34.0800,1.623
34.1200,1.681
34.1600,1.572
34.2000,1.615
34.2400,1.667
34.2800,1.577
34.3200,1.571
34.3600,1.607
34.4000,1.606
34.4400,1.627
34.4800,1.724
34.5200,1.603
34.5600,1.633
34.6000,1.635
34.6400,1.615
34.6800,1.575
34.7200,1.629
34.7600,1.617
34.8000,1.599
34.8400,1.586
34.8800,1.562
34.9200,1.603
34.9600,1.556
35.0000,1.557
35.0400,1.515
35.0800,1.608
35.1200,1.608
35.1600,1.638
35.2000,1.642
35.2400,1.578
35.2800,1.652
35.3200,1.553
35.3600,1.620
35.4000,1.648
35.4400,1.596
35.4800,1.675
35.5200,1.662
35.5600,1.567
35.6000,1.626
35.6400,1.662
35.6800,1.571
35.7200,1.652
35.7600,1.639
35.8000,1.634
35.8400,1.593
35.8800,1.613
35.9200,1.615
35.9600,1.677
36.0000,1.633
36.0400,1.707
36.0800,1.670
36.1200,1.684
36.1600,1.684
36.2000,1.728
36.2400,1.733
36.2800,1.753
36.3200,1.804
36.3600,1.768
36.4000,1.725
36.4400,1.732
36.4800,1.702
36.5200,1.810
36.5600,1.820
36.6000,1.865
36.6400,1.827
36.6800,1.899
36.7200,1.909
36.7600,1.918
36.8000,1.904
36.8400,1.873
36.8800,1.953
36.9200,1.958
36.9600,2.045
37.0000,2.071
37.0400,2.107
37.0800,2.180
37.1200,2.170
37.1600,2.158
37.2000,2.227
37.2400,2.325
37.2800,2.367
37.3200,2.372
37.3600,2.537
37.4000,2.580
37.4400,2.666
37.4800,2.835
37.5200,3.018
37.5600,3.045
37.6000,3.188
37.6400,3.347
37.6800,3.625
37.7200,3.731
37.7600,4.007
37.8000,4.148
37.8400,4.423
37.8800,4.750
37.9200,4.942
37.9600,5.272
38.0000,5.705
38.0400,5.924
38.0800,6.329
38.1200,6.619
38.1600,7.075
38.2000,7.377
38.2400,7.439
38.2800,7.562
38.3200,7.641
38.3600,7.561
38.4000,7.365
38.4400,7.161
38.4800,7.123
38.5200,6.680
38.5600,6.399
38.6000,6.117
38.6400,5.870
38.6800,5.530
38.7200,5.185
38.7600,4.856
38.8000,4.658
38.8400,4.369
38.8800,4.055
38.9200,3.933
38.9600,3.798
39.0000,3.551
39.0400,3.470
39.0800,3.287
39.1200,3.294
39.1600,3.177
39.2000,2.973
39.2400,2.836
39.2800,2.812
39.3200,2.709
39.3600,2.627
39.4000,2.598
39.4400,2.447
39.4800,2.572
39.5200,2.359
39.5600,2.356
39.6000,2.278
39.6400,2.201
39.6800,2.239
39.7200,2.149
39.7600,2.059
39.8000,2.085
39.8400,2.015
39.8800,2.027
39.9200,2.064
39.9600,1.995
40.0000,1.970
40.0400,1.942
40.0800,1.982
40.1200,1.942
40.1600,1.850
40.2000,1.854
40.2400,1.883
40.2800,1.749
40.3200,1.775
40.3600,1.829
40.4000,1.683
40.4400,1.751
40.4800,1.706
40.5200,1.674
40.5600,1.721
40.6000,1.750
40.6400,1.653
40.6800,1.722
40.7200,1.636
40.7600,1.728
40.8000,1.700
40.8400,1.640
40.8800,1.618
40.9200,1.695
40.9600,1.709
41.0000,1.651
41.0400,1.574
41.0800,1.577
41.1200,1.578
41.1600,1.610
41.2000,1.548
41.2400,1.589
41.2800,1.540
41.3200,1.440
41.3600,1.553
41.4000,1.507
41.4400,1.409
41.4800,1.514
41.5200,1.573
41.5600,1.476
41.6000,1.501
41.6400,1.563
41.6800,1.475
41.7200,1.456
41.7600,1.518
41.8000,1.493
41.8400,1.621
41.8800,1.516
41.9200,1.423
41.9600,1.475
42.0000,1.513
42.0400,1.519
42.0800,1.500
42.1200,1.495
42.1600,1.497
42.2000,1.504
42.2400,1.501
42.2800,1.508
42.3200,1.549
42.3600,1.460
42.4000,1.540
42.4400,1.507
42.4800,1.491
42.5200,1.473
42.5600,1.479
42.6000,1.477
42.6400,1.508
42.6800,1.598
42.7200,1.530
42.7600,1.498
42.8000,1.595
42.8400,1.605
42.8800,1.565
42.9200,1.590
42.9600,1.601
43.0000,1.537
43.0400,1.560
43.0800,1.496
43.1200,1.619
43.1600,1.582
43.2000,1.673
43.2400,1.676
43.2800,1.631
43.3200,1.699
43.3600,1.723
43.4000,1.761
43.4400,1.758
43.4800,1.785
43.5200,1.821
43.5600,1.799
43.6000,1.799
43.6400,1.881
43.6800,1.889
43.7200,1.893
43.7600,1.868
43.8000,1.967
43.8400,2.005
43.8800,2.005
43.9200,2.069
43.9600,2.025
44.0000,2.146
44.0400,2.084
44.0800,2.169
44.1200,2.171
44.1600,2.235
44.2000,2.266
44.2400,2.264
44.2800,2.312
44.3200,2.369
44.3600,2.201
44.4000,2.282
44.4400,2.319
44.4800,2.352
44.5200,2.394
44.5600,2.326
44.6000,2.335
44.6400,2.322
44.6800,2.325
44.7200,2.283
44.7600,2.334
44.8000,2.165
44.8400,2.160
44.8800,2.151
44.9200,2.129
44.9600,2.074
45.0000,2.057
45.0400,2.031
45.0800,1.894
45.1200,1.961
45.1600,1.836
45.2000,1.756
45.2400,1.781
45.2800,1.768
45.3200,1.680
45.3600,1.637
45.4000,1.589
45.4400,1.623
45.4800,1.573
45.5200,1.599
45.5600,1.501
45.6000,1.487
45.6400,1.413
45.6800,1.416
45.7200,1.382
45.7600,1.379
45.8000,1.409
45.8400,1.345
45.8800,1.377
45.9200,1.360
45.9600,1.285
46.0000,1.336
46.0400,1.267
46.0800,1.265
46.1200,1.216
46.1600,1.194
46.2000,1.203
46.2400,1.152
46.2800,1.191
46.3200,1.184
46.3600,1.138
46.4000,1.146
46.4400,1.098
46.4800,1.147
46.5200,1.112
46.5600,1.112
46.6000,1.067
46.6400,1.057
46.6800,1.104
46.7200,1.051
46.7600,1.060
46.8000,1.049
46.8400,1.073
46.8800,1.057
46.9200,1.052
46.9600,1.016
47.0000,1.027
47.0400,1.021
47.0800,1.026
47.1200,0.996
47.1600,1.046
47.2000,1.004
47.2400,1.043
47.2800,0.997
47.3200,0.990
47.3600,1.020
47.4000,0.989
47.4400,0.983
47.4800,0.979
47.5200,0.992
47.5600,0.970
47.6000,0.967
47.6400,0.966
47.6800,0.956
47.7200,0.965
47.7600,0.965
47.8000,0.963
47.8400,0.957
47.8800,0.935
47.9200,0.939
47.9600,0.929
48.0000,0.928
48.0400,0.920
48.0800,0.893
48.1200,0.929
48.1600,0.918
48.2000,0.873
48.2400,0.868
48.2800,0.910
48.3200,0.845
48.3600,0.902
48.4000,0.902
48.4400,0.806
48.4800,0.901
48.5200,0.856
48.5600,0.958
48.6000,0.914
48.6400,0.892
48.6800,0.884
48.7200,0.840
48.7600,0.906
48.8000,0.885
48.8400,0.798
48.8800,0.936
48.9200,0.909
48.9600,0.895
49.0000,0.845
49.0400,0.889
49.0800,0.868
49.1200,0.844
49.1600,0.846
49.2000,0.831
49.2400,0.888
49.2800,0.786
49.3200,0.851
49.3600,0.850
49.4000,0.861
49.4400,0.847
49.4800,0.836
49.5200,0.829
49.5600,0.866
49.6000,0.857
49.6400,0.844
49.6800,0.822
49.7200,0.893
49.7600,0.817
49.8000,0.862
49.8400,0.817
49.8800,0.865
49.9200,0.839
49.9600,0.813
50.0000,0.812
50.0400,0.779
50.0800,0.850
50.1200,0.835
50.1600,0.784
50.2000,0.812
50.2400,0.833
50.2800,0.827
50.3200,0.820
50.3600,0.852
50.4000,0.859
50.4400,0.785
50.4800,0.812
50.5200,0.827
50.5600,0.780
50.6000,0.869
50.6400,0.751
50.6800,0.783
50.7200,0.827
50.7600,0.810
50.8000,0.826
50.8400,0.806
50.8800,0.773
50.9200,0.795
50.9600,0.814
51.0000,0.752
51.0400,0.783
51.0800,0.803
51.1200,0.808
51.1600,0.778
51.2000,0.760
51.2400,0.806
51.2800,0.793
51.3200,0.796
51.3600,0.810
51.4000,0.777
51.4400,0.772
51.4800,0.759
51.5200,0.804
51.5600,0.817
51.6000,0.749
51.6400,0.740
51.6800,0.676
51.7200,0.789
51.7600,0.751
51.8000,0.737
51.8400,0.783
51.8800,0.764
51.9200,0.738
51.9600,0.772
52.0000,0.737
52.0400,0.735
52.0800,0.762
52.1200,0.734
52.1600,0.714
52.2000,0.777
52.2400,0.745
52.2800,0.740
52.3200,0.772
52.3600,0.734
52.4000,0.721
52.4400,0.732
52.4800,0.726
52.5200,0.688
52.5600,0.791
52.6000,0.736
52.6400,0.735
52.6800,0.763
52.7200,0.766
52.7600,0.756
52.8000,0.732
52.8400,0.702
52.8800,0.750
52.9200,0.738
52.9600,0.722
53.0000,0.716
53.0400,0.755
53.0800,0.753
53.1200,0.759
53.1600,0.744
53.2000,0.700
53.2400,0.741
53.2800,0.672
53.3200,0.712
53.3600,0.746
53.4000,0.704
53.4400,0.722
53.4800,0.673
53.5200,0.682
53.5600,0.755
53.6000,0.676
53.6400,0.682
53.6800,0.715
53.7200,0.711
53.7600,0.705
53.8000,0.691
53.8400,0.731
53.8800,0.743
53.9200,0.711
53.9600,0.716
54.0000,0.700
54.0400,0.712
54.0800,0.656
54.1200,0.679
54.1600,0.703
54.2000,0.711
54.2400,0.669
54.2800,0.658
54.3200,0.703
54.3600,0.699
54.4000,0.691
54.4400,0.702
54.4800,0.682
54.5200,0.726
54.5600,0.714
54.6000,0.664
54.6400,0.623
54.6800,0.680
54.7200,0.666
54.7600,0.701
54.8000,0.688
54.8400,0.622
54.8800,0.628
54.9200,0.659
54.9600,0.673
55.0000,0.696
55.0400,0.694
55.0800,0.686
55.1200,0.660
55.1600,0.684
55.2000,0.657
55.2400,0.659
55.2800,0.672
55.3200,0.655
55.3600,0.700
55.4000,0.669
55.4400,0.640
55.4800,0.673
55.5200,0.661
55.5600,0.693
55.6000,0.730
55.6400,0.655
55.6800,0.665
55.7200,0.656
55.7600,0.620
55.8000,0.658
55.8400,0.661
55.8800,0.683
55.9200,0.632
55.9600,0.622
56.0000,0.649
56.0400,0.656
56.0800,0.659
56.1200,0.702
56.1600,0.646
56.2000,0.649
56.2400,0.654
56.2800,0.666
56.3200,0.638
56.3600,0.637
56.4000,0.651
56.4400,0.636
56.4800,0.626
56.5200,0.627
56.5600,0.696
56.6000,0.612
56.6400,0.613
56.6800,0.644
56.7200,0.647
56.7600,0.620
56.8000,0.631
56.8400,0.659
56.8800,0.568
56.9200,0.633
56.9600,0.598
57.0000,0.623
57.0400,0.645
57.0800,0.601
57.1200,0.640
57.1600,0.622
57.2000,0.651
57.2400,0.632
57.2800,0.588
57.3200,0.582
57.3600,0.610
57.4000,0.603
57.4400,0.608
57.4800,0.594
57.5200,0.613
57.5600,0.630
57.6000,0.615
57.6400,0.611
57.6800,0.594
57.7200,0.626
57.7600,0.589
57.8000,0.630
57.8400,0.634
57.8800,0.597
57.9200,0.613
57.9600,0.628
58.0000,0.634
58.0400,0.598
58.0800,0.562
58.1200,0.607
58.1600,0.618
58.2000,0.630
58.2400,0.612
58.2800,0.626
58.3200,0.625
58.3600,0.649
58.4000,0.626
58.4400,0.615
58.4800,0.625
58.5200,0.628
58.5600,0.606
58.6000,0.601
58.6400,0.617
58.6800,0.596
58.7200,0.593
58.7600,0.578
58.8000,0.676
58.8400,0.655
58.8800,0.630
58.9200,0.636
58.9600,0.607
59.0000,0.623
59.0400,0.577
59.0800,0.584
59.1200,0.606
59.1600,0.669
59.2000,0.607
59.2400,0.598
59.2800,0.627
59.3200,0.592
59.3600,0.584
59.4000,0.622
59.4400,0.603
59.4800,0.661
59.5200,0.594
59.5600,0.599
59.6000,0.624
59.6400,0.606
59.6800,0.577
59.7200,0.595
59.7600,0.616
59.8000,0.611
59.8400,0.597
59.8800,0.626
59.9200,0.616
59.9600,0.590
60.0000,0.555
60.0400,0.587
60.0800,0.532
60.1200,0.569
60.1600,0.658
60.2000,0.615
60.2400,0.584
60.2800,0.594
60.3200,0.606
60.3600,0.530
60.4000,0.577
60.4400,0.596
60.4800,0.588
60.5200,0.567
60.5600,0.607
60.6000,0.588
60.6400,0.593
60.6800,0.623
60.7200,0.605
60.7600,0.585
60.8000,0.577
60.8400,0.614
60.8800,0.595
60.9200,0.581
60.9600,0.622
61.0000,0.611
61.0400,0.574
61.0800,0.644
61.1200,0.570
61.1600,0.587
61.2000,0.606
61.2400,0.593
61.2800,0.594
61.3200,0.606
61.3600,0.589
61.4000,0.612
61.4400,0.611
61.4800,0.567
61.5200,0.616
61.5600,0.603
61.6000,0.597
61.6400,0.714
61.6800,0.675
61.7200,0.643
61.7600,0.595
61.8000,0.569
61.8400,0.602
61.8800,0.622
61.9200,0.573
61.9600,0.619
62.0000,0.551
62.0400,0.650
62.0800,0.602
62.1200,0.577
62.1600,0.588
62.2000,0.597
62.2400,0.649
62.2800,0.630
62.3200,0.600
62.3600,0.613
62.4000,0.606
