theta,intensity
5.0000,7.094
5.0400,7.043
5.0800,6.991
5.1200,6.759
5.1600,6.812
5.2000,6.563
5.2400,6.563
5.2800,6.359
5.3200,6.326
5.3600,6.180
5.4000,6.118
5.4400,6.064
5.4800,5.987
5.5200,5.752
5.5600,5.821
5.6000,5.589
5.6400,5.544
5.6800,5.398
5.7200,5.350
5.7600,5.276
5.8000,4.980
5.8400,5.042
5.8800,4.865
5.9200,4.550
5.9600,4.702
6.0000,4.592
6.0400,4.628
6.0800,4.487
6.1200,4.451
6.1600,4.476
6.2000,4.462
6.2400,4.510
6.2800,4.381
6.3200,4.275
6.3600,4.286
6.4000,4.427
6.4400,4.315
6.4800,4.362
6.5200,4.203
6.5600,4.284
6.6000,4.190
6.6400,4.173
6.6800,4.248
6.7200,4.132
6.7600,4.216
6.8000,4.176
6.8400,4.243
6.8800,4.159
6.9200,4.150
6.9600,4.136
7.0000,4.149
7.0400,4.070
7.0800,4.019
7.1200,4.121
7.1600,4.096
7.2000,4.111
7.2400,4.028
7.2800,4.049
7.3200,4.059
7.3600,4.075
7.4000,4.112
7.4400,3.988
7.4800,4.111
7.5200,4.123
7.5600,4.018
7.6000,3.970
7.6400,4.130
7.6800,3.944
7.7200,3.968
7.7600,4.053
7.8000,4.030
7.8400,3.989
7.8800,4.036
7.9200,3.899
7.9600,3.928
8.0000,4.027
8.0400,3.961
8.0800,3.946
8.1200,3.970
8.1600,3.942
8.2000,3.937
8.2400,3.910
8.2800,3.934
8.3200,3.963
8.3600,3.845
8.4000,3.863
8.4400,3.871
8.4800,3.886
8.5200,3.851
8.5600,3.916
8.6000,3.918
8.6400,3.813
8.6800,3.917
8.7200,3.826
8.7600,3.875
8.8000,3.799
8.8400,3.640
8.8800,3.886
8.9200,3.779
8.9600,3.852
9.0000,3.824
9.0400,3.908
9.0800,3.811
9.1200,3.815
9.1600,3.799
9.2000,3.798
9.2400,3.829
9.2800,3.848
9.3200,3.732
9.3600,3.720
9.4000,3.738
9.4400,3.696
9.4800,3.754
9.5200,3.748
9.5600,3.731
9.6000,3.642
9.6400,3.653
9.6800,3.752
9.7200,3.811
9.7600,3.814
9.8000,3.876
9.8400,3.688
9.8800,3.737
9.9200,3.653
9.9600,3.604
10.0000,3.681
10.0400,3.659
10.0800,3.724
10.1200,3.753
10.1600,3.770
10.2000,3.689
10.2400,3.596
10.2800,3.787
10.3200,3.646
10.3600,3.692
10.4000,3.559
10.4400,3.630
10.4800,3.713
10.5200,3.549
10.5600,3.560
10.6000,3.656
10.6400,3.717
10.6800,3.548
10.7200,3.607
10.7600,3.597
10.8000,3.554
10.8400,3.619
10.8800,3.578
10.9200,3.510
10.9600,3.514
11.0000,3.520
11.0400,3.669
11.0800,3.559
11.1200,3.564
11.1600,3.395
11.2000,3.524
11.2400,3.508
11.2800,3.576
11.3200,3.609
11.3600,3.666
11.4000,3.490
11.4400,3.460
11.4800,3.406
11.5200,3.524
11.5600,3.568
11.6000,3.474
11.6400,3.477
11.6800,3.478
11.7200,3.437
11.7600,3.486
11.8000,3.456
11.8400,3.440
11.8800,3.513
11.9200,3.528
11.9600,3.620
12.0000,3.478
12.0400,3.533
12.0800,3.506
12.1200,3.421
12.1600,3.465
12.2000,3.461
12.2400,3.570
12.2800,3.419
12.3200,3.458
12.3600,3.409
12.4000,3.443
12.4400,3.489
12.4800,3.495
12.5200,3.487
12.5600,3.436
12.6000,3.373
12.6400,3.434
12.6800,3.407
12.7200,3.399
12.7600,3.456
12.8000,3.480
12.8400,3.446
12.8800,3.441
12.9200,3.417
12.9600,3.403
13.0000,3.381
13.0400,3.424
13.0800,3.357
13.1200,3.422
13.1600,3.252
13.2000,3.387
13.2400,3.311
13.2800,3.388
13.3200,3.305
13.3600,3.263
13.4000,3.287
13.4400,3.218
13.4800,3.272
13.5200,3.307
13.5600,3.284
13.6000,3.330
13.6400,3.354
13.6800,3.386
13.7200,3.286
13.7600,3.387
13.8000,3.259
13.8400,3.422
13.8800,3.239
13.9200,3.132
13.9600,3.372
14.0000,3.352
14.0400,3.192
14.0800,3.278
14.1200,3.237
14.1600,3.222
14.2000,3.244
14.2400,3.278
14.2800,3.242
14.3200,3.183
14.3600,3.312
14.4000,3.316
14.4400,3.188
14.4800,3.306
14.5200,3.304
14.5600,3.189
14.6000,3.187
14.6400,3.350
14.6800,3.225
14.7200,3.215
14.7600,3.110
14.8000,3.165
14.8400,3.239
14.8800,3.157
14.9200,3.174
14.9600,3.180
15.0000,3.213
15.0400,3.243
15.0800,3.192
15.1200,3.099
15.1600,3.102
15.2000,3.128
15.2400,3.181
15.2800,3.181
15.3200,3.174
15.3600,3.199
15.4000,3.115
15.4400,3.248
15.4800,3.079
15.5200,3.111
15.5600,3.202
15.6000,3.103
15.6400,3.151
15.6800,3.135
15.7200,3.106
15.7600,3.133
15.8000,3.093
15.8400,3.011
15.8800,3.049
15.9200,3.051
15.9600,3.062
16.0000,3.063
16.0400,3.039
16.0800,3.100
16.1200,3.116
16.1600,3.065
16.2000,3.036
16.2400,3.124
16.2800,3.015
16.3200,3.147
16.3600,3.088
16.4000,3.002
16.4400,3.084
16.4800,3.066
16.5200,3.070
16.5600,3.064
16.6000,3.067
16.6400,3.078
16.6800,3.039
16.7200,3.027
16.7600,3.181
16.8000,3.069
16.8400,3.017
16.8800,3.053
16.9200,3.102
16.9600,3.060
17.0000,3.023
17.0400,2.957
17.0800,2.946
17.1200,2.986
17.1600,2.999
17.2000,3.033
17.2400,2.973
17.2800,2.918
17.3200,2.971
17.3600,2.972
17.4000,2.950
17.4400,2.936
17.4800,2.898
17.5200,3.007
17.5600,2.992
17.6000,2.958
17.6400,2.876
17.6800,2.897
17.7200,2.905
17.7600,2.891
17.8000,2.929
17.8400,2.938
17.8800,2.902
17.9200,2.873
17.9600,2.872
18.0000,2.820
18.0400,2.936
18.0800,2.991
18.1200,2.906
18.1600,2.997
18.2000,2.856
18.2400,2.836
18.2800,2.983
18.3200,2.930
18.3600,2.894
18.4000,2.876
18.4400,2.852
18.4800,2.936
18.5200,2.847
18.5600,2.940
18.6000,2.852
18.6400,2.766
18.6800,2.863
18.7200,2.742
18.7600,2.837
18.8000,2.764
18.8400,2.790
18.8800,2.776
18.9200,2.728
18.9600,2.810
19.0000,2.850
19.0400,2.807
19.0800,2.808
19.1200,2.804
19.1600,2.778
19.2000,2.830
19.2400,2.747
19.2800,2.836
19.3200,2.792
19.3600,2.641
19.4000,2.750
19.4400,2.764
19.4800,2.796
19.5200,2.737
19.5600,2.724
19.6000,2.728
19.6400,2.746
19.6800,2.726
19.7200,2.745
19.7600,2.722
19.8000,2.746
19.8400,2.751
19.8800,2.754
19.9200,2.758
19.9600,2.662
20.0000,2.691
20.0400,2.684
20.0800,2.712
20.1200,2.678
20.1600,2.698
20.2000,2.688
20.2400,2.702
20.2800,2.737
20.3200,2.721
20.3600,2.693
20.4000,2.625
20.4400,2.687
20.4800,2.681
20.5200,2.676
20.5600,2.549
20.6000,2.645
20.6400,2.608
20.6800,2.767
20.7200,2.629
20.7600,2.623
20.8000,2.676
20.8400,2.664
20.8800,2.556
20.9200,2.550
20.9600,2.584
21.0000,2.650
21.0400,2.596
21.0800,2.540
21.1200,2.544
21.1600,2.648
21.2000,2.519
21.2400,2.503
21.2800,2.555
21.3200,2.527
21.3600,2.573
21.4000,2.504
21.4400,2.533
21.4800,2.440
21.5200,2.634
21.5600,2.513
21.6000,2.539
21.6400,2.502
21.6800,2.497
21.7200,2.636
21.7600,2.547
21.8000,2.541
21.8400,2.575
21.8800,2.512
21.9200,2.580
21.9600,2.505
22.0000,2.534
22.0400,2.525
22.0800,2.522
22.1200,2.515
22.1600,2.500
22.2000,2.448
22.2400,2.495
22.2800,2.521
22.3200,2.434
22.3600,2.447
22.4000,2.439
22.4400,2.473
22.4800,2.504
22.5200,2.418
22.5600,2.442
22.6000,2.457
22.6400,2.412
22.6800,2.424
22.7200,2.458
22.7600,2.441
22.8000,2.361
22.8400,2.526
22.8800,2.450
22.9200,2.353
22.9600,2.423
23.0000,2.394
23.0400,2.429
23.0800,2.508
23.1200,2.404
23.1600,2.495
23.2000,2.356
23.2400,2.414
23.2800,2.402
23.3200,2.357
23.3600,2.322
23.4000,2.381
23.4400,2.456
23.4800,2.353
23.5200,2.387
23.5600,2.280
23.6000,2.336
23.6400,2.367
23.6800,2.348
23.7200,2.400
23.7600,2.395
23.8000,2.315
23.8400,2.398
23.8800,2.286
23.9200,2.452
23.9600,2.291
24.0000,2.195
24.0400,2.349
24.0800,2.253
24.1200,2.368
24.1600,2.379
24.2000,2.268
24.2400,2.358
24.2800,2.334
24.3200,2.312
24.3600,2.350
24.4000,2.326
24.4400,2.254
24.4800,2.263
24.5200,2.241
24.5600,2.390
24.6000,2.327
24.6400,2.288
24.6800,2.252
24.7200,2.231
24.7600,2.235
24.8000,2.274
24.8400,2.309
24.8800,2.292
24.9200,2.289
24.9600,2.257
25.0000,2.237
25.0400,2.374
25.0800,2.284
25.1200,2.196
25.1600,2.253
25.2000,2.197
25.2400,2.285
25.2800,2.303
25.3200,2.226
25.3600,2.199
25.4000,2.159
25.4400,2.272
25.4800,2.223
25.5200,2.185
25.5600,2.186
25.6000,2.218
25.6400,2.162
25.6800,2.177
25.7200,2.209
25.7600,2.159
25.8000,2.187
25.8400,2.160
25.8800,2.169
25.9200,2.149
25.9600,2.212
26.0000,2.214
26.0400,2.181
26.0800,2.123
26.1200,2.168
26.1600,2.140
26.2000,2.119
26.2400,2.156
26.2800,2.111
26.3200,2.103
26.3600,2.170
26.4000,2.177
26.4400,2.125
26.4800,2.126
26.5200,2.054
26.5600,2.052
26.6000,2.192
26.6400,2.136
26.6800,2.098
26.7200,2.092
26.7600,2.179
26.8000,2.128
26.8400,2.124
26.8800,2.052
26.9200,2.117
26.9600,2.050
27.0000,2.113
27.0400,2.036
27.0800,2.096
27.1200,2.089
27.1600,2.034
27.2000,2.049
27.2400,2.031
27.2800,2.134
27.3200,2.061
27.3600,2.028
27.4000,2.004
27.4400,2.044
27.4800,2.009
27.5200,2.098
27.5600,1.989
27.6000,2.036
27.6400,1.985
27.6800,2.078
27.7200,2.009
27.7600,2.039
27.8000,2.027
27.8400,1.961
27.8800,1.907
27.9200,2.036
27.9600,1.987
28.0000,1.869
28.0400,2.056
28.0800,2.000
28.1200,1.989
28.1600,1.937
28.2000,1.946
28.2400,1.988
28.2800,2.006
28.3200,2.000
28.3600,1.986
28.4000,2.062
28.4400,1.939
28.4800,2.027
28.5200,2.003
28.5600,2.030
28.6000,1.935
28.6400,1.922
28.6800,1.960
28.7200,1.934
28.7600,1.877
28.8000,1.920
28.8400,1.934
28.8800,1.933
28.9200,1.956
28.9600,1.957
29.0000,1.983
29.0400,1.928
29.0800,1.902
29.1200,1.984
29.1600,1.897
29.2000,1.841
29.2400,1.963
29.2800,1.873
29.3200,1.901
29.3600,1.888
29.4000,1.922
29.4400,1.905
29.4800,1.804
29.5200,1.923
29.5600,1.927
29.6000,1.834
29.6400,1.829
29.6800,1.879
29.7200,1.867
29.7600,1.900
29.8000,1.844
29.8400,1.858
29.8800,1.836
29.9200,1.891
29.9600,1.855
30.0000,1.913
30.0400,1.854
30.0800,1.838
30.1200,1.807
30.1600,1.835
30.2000,1.829
30.2400,1.875
30.2800,1.857
30.3200,1.858
30.3600,1.772
30.4000,1.838
30.4400,1.832
30.4800,1.822
30.5200,1.805
30.5600,1.808
30.6000,1.811
30.6400,1.776
30.6800,1.801
30.7200,1.814
30.7600,1.772
30.8000,1.789
30.8400,1.830
30.8800,1.798
30.9200,1.805
30.9600,1.762
31.0000,1.840
31.0400,1.805
31.0800,1.781
31.1200,1.814
31.1600,1.872
31.2000,1.748
31.2400,1.759
31.2800,1.783
31.3200,1.770
31.3600,1.766
31.4000,1.733
31.4400,1.787
31.4800,1.793
31.5200,1.776
31.5600,1.706
31.6000,1.726
31.6400,1.741
31.6800,1.666
31.7200,1.756
31.7600,1.752
31.8000,1.656
31.8400,1.748
31.8800,1.730
31.9200,1.750
31.9600,1.719
32.0000,1.680
32.0400,1.715
32.0800,1.699
32.1200,1.620
32.1600,1.680
32.2000,1.740
32.2400,1.599
32.2800,1.662
32.3200,1.718
32.3600,1.697
32.4000,1.642
32.4400,1.693
32.4800,1.770
32.5200,1.715
32.5600,1.672
32.6000,1.635
32.6400,1.686
32.6800,1.666
32.7200,1.609
32.7600,1.656
32.8000,1.727
32.8400,1.740
32.8800,1.629
32.9200,1.703
32.9600,1.666
33.0000,1.708
33.0400,1.623
33.0800,1.637
33.1200,1.623
33.1600,1.638
33.2000,1.684
33.2400,1.618
33.2800,1.651
33.3200,1.635
33.3600,1.609
33.4000,1.672
33.4400,1.573
33.4800,1.596
33.5200,1.619
33.5600,1.565
33.6000,1.658
33.6400,1.619
33.6800,1.588
33.7200,1.702
33.7600,1.679
33.8000,1.632
33.8400,1.578
33.8800,1.614
33.9200,1.578
33.9600,1.612
34.0000,1.580
34.0400,1.567
34.0800,1.646
34.1200,1.598
34.1600,1.655
34.2000,1.597
34.2400,1.616
34.2800,1.601
34.3200,1.568
34.3600,1.619
34.4000,1.559
34.4400,1.572
34.4800,1.582
34.5200,1.544
34.5600,1.553
34.6000,1.599
34.6400,1.566
34.6800,1.620
34.7200,1.655
34.7600,1.614
34.8000,1.526
34.8400,1.605
34.8800,1.645
34.9200,1.638
34.9600,1.610
35.0000,1.550
35.0400,1.539
35.0800,1.563
35.1200,1.581
35.1600,1.586
35.2000,1.533
35.2400,1.567
35.2800,1.627
35.3200,1.622
35.3600,1.580
35.4000,1.638
35.4400,1.637
35.4800,1.618
35.5200,1.577
35.5600,1.597
35.6000,1.611
35.6400,1.595
35.6800,1.635
35.7200,1.539
35.7600,1.596
35.8000,1.514
35.8400,1.582
35.8800,1.551
35.9200,1.629
35.9600,1.578
36.0000,1.655
36.0400,1.704
36.0800,1.725
36.1200,1.600
36.1600,1.660
36.2000,1.723
36.2400,1.696
36.2800,1.690
36.3200,1.710
36.3600,1.708
36.4000,1.760
36.4400,1.704
36.4800,1.717
36.5200,1.749
36.5600,1.724
36.6000,1.823
36.6400,1.773
36.6800,1.814
36.7200,1.792
36.7600,1.832
36.8000,1.786
36.8400,1.787
36.8800,1.816
36.9200,1.937
36.9600,1.846
37.0000,1.966
37.0400,1.951
37.0800,1.955
37.1200,2.078
37.1600,2.074
37.2000,2.103
37.2400,2.103
37.2800,2.281
37.3200,2.260
37.3600,2.331
37.4000,2.362
37.4400,2.619
37.4800,2.625
37.5200,2.740
37.5600,2.771
37.6000,2.930
37.6400,3.134
37.6800,3.240
37.7200,3.304
37.7600,3.502
37.8000,3.799
37.8400,4.087
37.8800,4.306
37.9200,4.501
37.9600,4.772
38.0000,5.000
38.0400,5.163
38.0800,5.641
38.1200,5.962
38.1600,6.056
38.2000,6.285
38.2400,6.537
38.2800,6.584
38.3200,6.517
38.3600,6.410
38.4000,6.240
38.4400,6.144
38.4800,5.747
38.5200,5.718
38.5600,5.312
38.6000,5.024
38.6400,4.860
38.6800,4.630
38.7200,4.366
38.7600,4.167
38.8000,3.920
38.8400,3.753
38.8800,3.614
38.9200,3.440
38.9600,3.247
39.0000,3.181
39.0400,3.073
39.0800,2.868
39.1200,2.822
39.1600,2.702
39.2000,2.590
39.2400,2.546
39.2800,2.488
39.3200,2.363
39.3600,2.256
39.4000,2.234
39.4400,2.185
39.4800,2.206
39.5200,2.133
39.5600,2.159
39.6000,2.029
39.6400,1.968
39.6800,2.084
39.7200,2.014
39.7600,2.000
39.8000,1.872
39.8400,1.854
39.8800,1.824
39.9200,1.867
39.9600,1.800
40.0000,1.769
40.0400,1.757
40.0800,1.674
40.1200,1.733
40.1600,1.756
40.2000,1.684
40.2400,1.682
40.2800,1.605
40.3200,1.638
40.3600,1.674
40.4000,1.605
40.4400,1.595
40.4800,1.608
40.5200,1.518
40.5600,1.585
40.6000,1.600
40.6400,1.522
40.6800,1.576
40.7200,1.574
40.7600,1.507
40.8000,1.516
40.8400,1.473
40.8800,1.520
40.9200,1.473
40.9600,1.508
41.0000,1.510
41.0400,1.567
41.0800,1.496
41.1200,1.433
41.1600,1.487
41.2000,1.406
41.2400,1.452
41.2800,1.468
41.3200,1.412
41.3600,1.394
41.4000,1.331
41.4400,1.459
41.4800,1.530
41.5200,1.497
41.5600,1.349
41.6000,1.447
41.6400,1.464
41.6800,1.429
41.7200,1.412
41.7600,1.478
41.8000,1.391
41.8400,1.333
41.8800,1.389
41.9200,1.395
41.9600,1.383
42.0000,1.334
42.0400,1.378
42.0800,1.414
42.1200,1.481
42.1600,1.434
42.2000,1.385
42.2400,1.424
42.2800,1.450
42.3200,1.421
42.3600,1.383
42.4000,1.370
42.4400,1.431
42.4800,1.434
42.5200,1.359
42.5600,1.428
42.6000,1.452
42.6400,1.400
42.6800,1.491
42.7200,1.522
42.7600,1.429
42.8000,1.427
42.8400,1.473
42.8800,1.512
42.9200,1.441
42.9600,1.484
43.0000,1.458
43.0400,1.460
43.0800,1.479
43.1200,1.502
43.1600,1.487
43.2000,1.533
43.2400,1.547
43.2800,1.561
43.3200,1.580
43.3600,1.626
43.4000,1.578
43.4400,1.630
43.4800,1.605
43.5200,1.637
43.5600,1.629
43.6000,1.676
43.6400,1.673
43.6800,1.731
43.7200,1.750
43.7600,1.762
43.8000,1.813
43.8400,1.801
43.8800,1.756
43.9200,1.844
43.9600,1.846
44.0000,1.911
44.0400,1.864
44.0800,1.852
44.1200,1.913
44.1600,1.950
44.2000,1.978
44.2400,1.976
44.2800,1.977
44.3200,2.010
44.3600,2.079
44.4000,2.105
44.4400,2.013
44.4800,1.924
44.5200,2.091
44.5600,1.981
44.6000,2.074
44.6400,2.062
44.6800,1.990
44.7200,2.039
44.7600,1.856
44.8000,1.878
44.8400,1.920
44.8800,1.821
44.9200,1.818
44.9600,1.787
45.0000,1.837
45.0400,1.680
45.0800,1.727
45.1200,1.689
45.1600,1.679
45.2000,1.633
45.2400,1.573
45.2800,1.503
45.3200,1.503
45.3600,1.552
45.4000,1.414
45.4400,1.418
45.4800,1.414
45.5200,1.402
45.5600,1.311
45.6000,1.332
45.6400,1.313
45.6800,1.343
45.7200,1.257
45.7600,1.245
45.8000,1.315
45.8400,1.272
45.8800,1.233
45.9200,1.151
45.9600,1.214
46.0000,1.185
46.0400,1.180
46.0800,1.119
46.1200,1.075
46.1600,1.155
46.2000,1.149
46.2400,1.089
46.2800,1.089
46.3200,1.090
46.3600,1.112
46.4000,1.071
46.4400,1.028
46.4800,1.049
46.5200,1.027
46.5600,0.998
46.6000,1.023
46.6400,1.071
46.6800,1.013
46.7200,0.984
46.7600,1.041
46.8000,1.075
46.8400,1.014
46.8800,1.030
46.9200,1.005
46.9600,1.054
47.0000,0.992
47.0400,0.991
47.0800,1.029
47.1200,0.943
47.1600,0.962
47.2000,0.950
47.2400,0.950
47.2800,0.942
47.3200,0.947
47.3600,0.992
47.4000,0.931
47.4400,0.985
47.4800,0.966
47.5200,0.906
47.5600,0.960
47.6000,0.919
47.6400,0.900
47.6800,0.904
47.7200,0.927
47.7600,0.940
47.8000,0.943
47.8400,0.937
47.8800,0.885
47.9200,0.848
47.9600,0.870
48.0000,0.908
48.0400,0.929
48.0800,0.881
48.1200,0.979
48.1600,0.879
48.2000,0.889
48.2400,0.927
48.2800,0.885
48.3200,0.957
48.3600,0.891
48.4000,0.955
48.4400,0.846
48.4800,0.861
48.5200,0.876
48.5600,0.850
48.6000,0.920
48.6400,0.879
48.6800,0.868
48.7200,0.879
48.7600,0.916
48.8000,0.856
48.8400,0.865
48.8800,0.835
48.9200,0.815
48.9600,0.820
49.0000,0.820
49.0400,0.845
49.0800,0.877
49.1200,0.838
49.1600,0.859
49.2000,0.870
49.2400,0.789
49.2800,0.801
49.3200,0.877
49.3600,0.848
49.4000,0.806
49.4400,0.859
49.4800,0.803
49.5200,0.839
49.5600,0.845
49.6000,0.823
49.6400,0.810
49.6800,0.806
49.7200,0.823
49.7600,0.820
49.8000,0.806
49.8400,0.832
49.8800,0.848
49.9200,0.815
49.9600,0.826
50.0000,0.825
50.0400,0.815
50.0800,0.815
50.1200,0.811
50.1600,0.816
50.2000,0.829
50.2400,0.813
50.2800,0.822
50.3200,0.808
50.3600,0.805
50.4000,0.772
50.4400,0.793
50.4800,0.791
50.5200,0.773
50.5600,0.792
50.6000,0.817
50.6400,0.799
50.6800,0.745
50.7200,0.748
50.7600,0.786
50.8000,0.768
50.8400,0.779
50.8800,0.766
50.9200,0.813
50.9600,0.781
51.0000,0.734
51.0400,0.745
51.0800,0.770
51.1200,0.753
51.1600,0.768
51.2000,0.716
51.2400,0.777
51.2800,0.746
51.3200,0.774
51.3600,0.784
51.4000,0.779
51.4400,0.758
51.4800,0.783
51.5200,0.755
51.5600,0.751
51.6000,0.752
51.6400,0.714
51.6800,0.753
51.7200,0.721
51.7600,0.748
51.8000,0.758
51.8400,0.741
51.8800,0.739
51.9200,0.741
51.9600,0.707
52.0000,0.732
52.0400,0.772
52.0800,0.746
52.1200,0.749
52.1600,0.745
52.2000,0.739
52.2400,0.753
52.2800,0.733
52.3200,0.746
52.3600,0.730
52.4000,0.698
52.4400,0.777
52.4800,0.769
52.5200,0.734
52.5600,0.715
52.6000,0.742
52.6400,0.721
52.6800,0.736
52.7200,0.710
52.7600,0.747
52.8000,0.746
52.8400,0.709
52.8800,0.717
52.9200,0.711
52.9600,0.683
53.0000,0.705
53.0400,0.709
53.0800,0.718
53.1200,0.712
53.1600,0.706
53.2000,0.746
53.2400,0.693
53.2800,0.782
53.3200,0.719
53.3600,0.734
53.4000,0.709
53.4400,0.726
53.4800,0.717
53.5200,0.707
53.5600,0.677
53.6000,0.733
53.6400,0.722
53.6800,0.754
53.7200,0.750
53.7600,0.702
53.8000,0.699
53.8400,0.658
53.8800,0.685
53.9200,0.716
53.9600,0.686
54.0000,0.692
54.0400,0.664
54.0800,0.680
54.1200,0.634
54.1600,0.701
54.2000,0.728
54.2400,0.728
54.2800,0.702
54.3200,0.712
54.3600,0.686
54.4000,0.706
54.4400,0.682
54.4800,0.666
54.5200,0.666
54.5600,0.696
54.6000,0.669
54.6400,0.645
54.6800,0.657
54.7200,0.667
54.7600,0.683
54.8000,0.684
54.8400,0.714
54.8800,0.674
54.9200,0.678
54.9600,0.690
55.0000,0.665
55.0400,0.621
55.0800,0.657
55.1200,0.655
55.1600,0.631
55.2000,0.715
55.2400,0.664
55.2800,0.695
55.3200,0.659
55.3600,0.647
55.4000,0.619
55.4400,0.658
55.4800,0.700
55.5200,0.648
55.5600,0.673
55.6000,0.645
55.6400,0.631
55.6800,0.617
55.7200,0.648
55.7600,0.624
55.8000,0.618
55.8400,0.616
55.8800,0.638
55.9200,0.649
55.9600,0.685
56.0000,0.669
56.0400,0.659
56.0800,0.652
56.1200,0.638
56.1600,0.653
56.2000,0.637
56.2400,0.624
56.2800,0.658
56.3200,0.648
56.3600,0.635
56.4000,0.678
56.4400,0.678
56.4800,0.660
56.5200,0.613
56.5600,0.598
56.6000,0.703
56.6400,0.617
56.6800,0.659
56.7200,0.652
56.7600,0.636
56.8000,0.591
56.8400,0.632
56.8800,0.644
56.9200,0.655
56.9600,0.649
57.0000,0.687
57.0400,0.639
57.0800,0.620
57.1200,0.652
57.1600,0.596
57.2000,0.646
57.2400,0.662
57.2800,0.657
57.3200,0.630
57.3600,0.665
57.4000,0.642
57.4400,0.615
57.4800,0.644
57.5200,0.592
57.5600,0.641
57.6000,0.612
57.6400,0.605
57.6800,0.625
57.7200,0.546
57.7600,0.652
57.8000,0.594
57.8400,0.622
57.8800,0.616
57.9200,0.646
57.9600,0.642
58.0000,0.616
58.0400,0.599
58.0800,0.629
58.1200,0.668
58.1600,0.619
58.2000,0.605
58.2400,0.568
58.2800,0.611
58.3200,0.593
58.3600,0.650
58.4000,0.582
58.4400,0.612
58.4800,0.616
58.5200,0.604
58.5600,0.602
58.6000,0.594
58.6400,0.674
58.6800,0.645
58.7200,0.578
58.7600,0.618
58.8000,0.644
58.8400,0.618
58.8800,0.611
58.9200,0.611
58.9600,0.599
59.0000,0.646
59.0400,0.582
59.0800,0.639
59.1200,0.562
59.1600,0.595
59.2000,0.625
59.2400,0.551
59.2800,0.660
59.3200,0.604
59.3600,0.594
59.4000,0.613
59.4400,0.625
59.4800,0.627
59.5200,0.604
59.5600,0.578
59.6000,0.597
59.6400,0.599
59.6800,0.567
59.7200,0.596
59.7600,0.596
59.8000,0.594
59.8400,0.595
59.8800,0.545
59.9200,0.595
59.9600,0.595
60.0000,0.594
60.0400,0.595
60.0800,0.629
60.1200,0.562
60.1600,0.558
60.2000,0.629
60.2400,0.613
60.2800,0.538
60.3200,0.622
60.3600,0.597
60.4000,0.576
60.4400,0.598
60.4800,0.610
60.5200,0.554
60.5600,0.587
60.6000,0.549
60.6400,0.570
60.6800,0.565
60.7200,0.601
60.7600,0.577
60.8000,0.568
60.8400,0.564
60.8800,0.563
60.9200,0.542
60.9600,0.609
61.0000,0.554
61.0400,0.609
61.0800,0.607
61.1200,0.606
61.1600,0.569
61.2000,0.553
61.2400,0.560
61.2800,0.561
61.3200,0.556
61.3600,0.590
61.4000,0.601
61.4400,0.538
61.4800,0.599
61.5200,0.570
61.5600,0.577
61.6000,0.683
61.6400,0.643
61.6800,0.589
61.7200,0.606
61.7600,0.564
61.8000,0.601
61.8400,0.592
61.8800,0.595
61.9200,0.576
61.9600,0.572
62.0000,0.544
62.0400,0.585
62.0800,0.599
62.1200,0.578
62.1600,0.612
62.2000,0.591
62.2400,0.596
62.2800,0.608
62.3200,0.559
62.3600,0.555
62.4000,0.592
