theta,intensity
5.0000,5.041
5.0400,4.908
5.0800,4.846
5.1200,4.837
5.1600,4.842
5.2000,4.672
5.2400,4.660
5.2800,4.466
5.3200,4.403
5.3600,4.504
5.4000,4.414
5.4400,4.222
5.4800,4.266
5.5200,4.389
5.5600,4.225
5.6000,4.204
5.6400,4.195
5.6800,4.283
5.7200,4.215
5.7600,4.155
5.8000,4.177
5.8400,4.251
5.8800,4.185
5.9200,4.210
5.9600,4.113
6.0000,4.130
6.0400,4.157
6.0800,4.058
6.1200,4.210
6.1600,4.089
6.2000,4.188
6.2400,4.166
6.2800,4.037
6.3200,3.960
6.3600,4.098
6.4000,4.071
6.4400,4.164
6.4800,3.976
6.5200,4.098
6.5600,4.033
6.6000,4.049
6.6400,4.128
6.6800,4.051
6.7200,4.135
6.7600,4.038
6.8000,4.039
6.8400,4.059
6.8800,3.936
6.9200,4.055
6.9600,3.925
7.0000,4.062
7.0400,3.948
7.0800,3.949
7.1200,4.051
7.1600,4.062
7.2000,4.025
7.2400,3.983
7.2800,4.021
7.3200,3.968
7.3600,4.060
7.4000,3.917
7.4400,3.949
7.4800,3.978
7.5200,3.874
7.5600,3.894
7.6000,3.803
7.6400,3.928
7.6800,3.876
7.7200,3.843
7.7600,3.967
7.8000,3.935
7.8400,3.834
7.8800,3.917
7.9200,3.844
7.9600,3.830
8.0000,3.976
8.0400,3.845
8.0800,3.934
8.1200,3.838
8.1600,3.746
8.2000,3.933
8.2400,3.896
8.2800,3.851
8.3200,3.834
8.3600,3.797
8.4000,3.821
8.4400,3.739
8.4800,3.763
8.5200,3.795
8.5600,3.840
8.6000,3.832
8.6400,3.804
8.6800,3.886
8.7200,3.738
8.7600,3.787
8.8000,3.811
8.8400,3.862
8.8800,3.755
8.9200,3.781
8.9600,3.699
9.0000,3.857
9.0400,3.774
9.0800,3.832
9.1200,3.884
9.1600,3.763
9.2000,3.909
9.2400,3.752
9.2800,3.659
9.3200,3.766
9.3600,3.823
9.4000,3.760
9.4400,3.774
9.4800,3.682
9.5200,3.639
9.5600,3.722
9.6000,3.735
9.6400,3.748
9.6800,3.689
9.7200,3.600
9.7600,3.747
9.8000,3.693
9.8400,3.743
9.8800,3.590
9.9200,3.639
9.9600,3.560
10.0000,3.691
10.0400,3.728
10.0800,3.681
10.1200,3.624
10.1600,3.662
10.2000,3.584
10.2400,3.546
10.2800,3.669
10.3200,3.683
10.3600,3.549
10.4000,3.578
10.4400,3.577
10.4800,3.515
10.5200,3.678
10.5600,3.525
10.6000,3.539
10.6400,3.560
10.6800,3.608
10.7200,3.549
10.7600,3.542
10.8000,3.539
10.8400,3.563
10.8800,3.498
10.9200,3.520
10.9600,3.625
11.0000,3.465
11.0400,3.488
11.0800,3.596
11.1200,3.620
11.1600,3.507
11.2000,3.544
11.2400,3.530
11.2800,3.624
11.3200,3.533
11.3600,3.522
11.4000,3.499
11.4400,3.457
11.4800,3.476
11.5200,3.563
11.5600,3.384
11.6000,3.501
11.6400,3.615
11.6800,3.504
11.7200,3.480
11.7600,3.479
11.8000,3.560
11.8400,3.425
11.8800,3.438
11.9200,3.463
11.9600,3.450
12.0000,3.452
12.0400,3.476
12.0800,3.387
12.1200,3.458
12.1600,3.459
12.2000,3.422
12.2400,3.443
12.2800,3.364
12.3200,3.441
12.3600,3.417
12.4000,3.354
12.4400,3.345
12.4800,3.316
12.5200,3.343
12.5600,3.309
12.6000,3.339
12.6400,3.432
12.6800,3.268
12.7200,3.270
12.7600,3.316
12.8000,3.384
12.8400,3.363
12.8800,3.390
12.9200,3.331
12.9600,3.309
13.0000,3.454
13.0400,3.380
13.0800,3.249
13.1200,3.434
13.1600,3.273
13.2000,3.255
13.2400,3.373
13.2800,3.370
13.3200,3.248
13.3600,3.327
13.4000,3.203
13.4400,3.242
13.4800,3.322
13.5200,3.222
13.5600,3.306
13.6000,3.281
13.6400,3.284
13.6800,3.278
13.7200,3.281
13.7600,3.284
13.8000,3.200
13.8400,3.270
13.8800,3.249
13.9200,3.204
13.9600,3.163
14.0000,3.221
14.0400,3.286
14.0800,3.153
14.1200,3.212
14.1600,3.219
14.2000,3.165
14.2400,3.252
14.2800,3.237
14.3200,3.245
14.3600,3.152
14.4000,3.231
14.4400,3.134
14.4800,3.229
14.5200,3.181
14.5600,3.276
14.6000,3.295
14.6400,3.115
14.6800,3.258
14.7200,3.153
14.7600,3.112
14.8000,3.074
14.8400,3.164
14.8800,3.101
14.9200,3.106
14.9600,3.152
15.0000,3.124
15.0400,3.108
15.0800,3.096
15.1200,3.147
15.1600,3.150
15.2000,3.091
15.2400,3.115
15.2800,3.179
15.3200,3.135
15.3600,3.153
15.4000,3.107
15.4400,3.082
15.4800,3.055
15.5200,3.066
15.5600,3.024
15.6000,3.072
15.6400,2.993
15.6800,3.076
15.7200,3.118
15.7600,3.095
15.8000,3.014
15.8400,3.122
15.8800,3.037
15.9200,3.123
15.9600,3.020
16.0000,3.031
16.0400,3.047
16.0800,3.009
16.1200,3.041
16.1600,3.072
16.2000,2.935
16.2400,3.034
16.2800,3.013
16.3200,3.099
16.3600,2.995
16.4000,3.099
16.4400,3.146
16.4800,3.052
16.5200,2.980
16.5600,2.980
16.6000,2.993
16.6400,2.908
16.6800,3.040
16.7200,2.914
16.7600,3.017
16.8000,2.903
16.8400,2.955
16.8800,2.895
16.9200,2.851
16.9600,3.041
17.0000,2.935
17.0400,2.946
17.0800,2.965
17.1200,2.917
17.1600,2.847
17.2000,2.920
17.2400,2.954
17.2800,2.919
17.3200,2.938
17.3600,2.852
17.4000,2.927
17.4400,2.884
17.4800,2.929
17.5200,2.955
17.5600,2.823
17.6000,2.882
17.6400,2.931
17.6800,2.910
17.7200,2.796
17.7600,2.901
17.8000,2.757
17.8400,2.925
17.8800,2.826
17.9200,2.840
17.9600,2.880
18.0000,2.947
18.0400,2.869
18.0800,2.862
18.1200,2.789
18.1600,2.808
18.2000,2.857
18.2400,2.829
18.2800,2.875
18.3200,2.928
18.3600,2.902
18.4000,2.799
18.4400,2.798
18.4800,2.910
18.5200,2.894
18.5600,2.779
18.6000,2.855
18.6400,2.805
18.6800,2.754
18.7200,2.784
18.7600,2.816
18.8000,2.722
18.8400,2.729
18.8800,2.757
18.9200,2.809
18.9600,2.813
19.0000,2.752
19.0400,2.834
19.0800,2.788
19.1200,2.794
19.1600,2.698
19.2000,2.768
19.2400,2.680
19.2800,2.700
19.3200,2.800
19.3600,2.755
19.4000,2.690
19.4400,2.714
19.4800,2.750
19.5200,2.788
19.5600,2.757
19.6000,2.722
19.6400,2.718
19.6800,2.740
19.7200,2.590
19.7600,2.666
19.8000,2.588
19.8400,2.746
19.8800,2.653
19.9200,2.586
19.9600,2.706
20.0000,2.729
20.0400,2.728
20.0800,2.694
20.1200,2.631
20.1600,2.582
20.2000,2.680
20.2400,2.633
20.2800,2.680
20.3200,2.508
20.3600,2.636
20.4000,2.693
20.4400,2.621
20.4800,2.608
20.5200,2.644
20.5600,2.623
20.6000,2.576
20.6400,2.548
20.6800,2.584
20.7200,2.640
20.7600,2.549
20.8000,2.652
20.8400,2.625
20.8800,2.514
20.9200,2.558
20.9600,2.605
21.0000,2.541
21.0400,2.554
21.0800,2.601
21.1200,2.507
21.1600,2.491
21.2000,2.596
21.2400,2.497
21.2800,2.447
21.3200,2.509
21.3600,2.566
21.4000,2.528
21.4400,2.518
21.4800,2.579
21.5200,2.550
21.5600,2.611
21.6000,2.596
21.6400,2.488
21.6800,2.547
21.7200,2.471
21.7600,2.555
21.8000,2.573
21.8400,2.417
21.8800,2.488
21.9200,2.474
21.9600,2.528
22.0000,2.500
22.0400,2.423
22.0800,2.429
22.1200,2.406
22.1600,2.424
22.2000,2.534
22.2400,2.442
22.2800,2.407
22.3200,2.400
22.3600,2.453
22.4000,2.499
22.4400,2.541
22.4800,2.470
22.5200,2.516
22.5600,2.377
22.6000,2.394
22.6400,2.496
22.6800,2.451
22.7200,2.400
22.7600,2.428
22.8000,2.355
22.8400,2.456
22.8800,2.357
22.9200,2.443
22.9600,2.444
23.0000,2.401
23.0400,2.316
23.0800,2.358
23.1200,2.354
23.1600,2.257
23.2000,2.332
23.2400,2.361
23.2800,2.346
23.3200,2.367
23.3600,2.334
23.4000,2.389
23.4400,2.412
23.4800,2.397
23.5200,2.409
23.5600,2.263
23.6000,2.304
23.6400,2.393
23.6800,2.367
23.7200,2.381
23.7600,2.314
23.8000,2.360
23.8400,2.404
23.8800,2.296
23.9200,2.246
23.9600,2.331
24.0000,2.247
24.0400,2.247
24.0800,2.242
24.1200,2.229
24.1600,2.310
24.2000,2.257
24.2400,2.378
24.2800,2.325
24.3200,2.254
24.3600,2.229
24.4000,2.341
24.4400,2.171
24.4800,2.199
24.5200,2.328
24.5600,2.217
24.6000,2.225
24.6400,2.275
24.6800,2.272
24.7200,2.228
24.7600,2.197
24.8000,2.325
24.8400,2.293
24.8800,2.169
24.9200,2.179
24.9600,2.259
25.0000,2.268
25.0400,2.189
25.0800,2.198
25.1200,2.204
25.1600,2.250
25.2000,2.193
25.2400,2.107
25.2800,2.114
25.3200,2.173
25.3600,2.232
25.4000,2.199
25.4400,2.140
25.4800,2.096
25.5200,2.129
25.5600,2.210
25.6000,2.118
25.6400,2.200
25.6800,2.198
25.7200,2.109
25.7600,2.089
25.8000,2.150
25.8400,2.182
25.8800,2.159
25.9200,2.212
25.9600,2.164
26.0000,2.118
26.0400,2.237
26.0800,2.175
26.1200,2.051
26.1600,2.141
26.2000,2.018
26.2400,2.055
26.2800,2.092
26.3200,2.031
26.3600,2.081
26.4000,2.071
26.4400,2.126
26.4800,2.046
26.5200,2.060
26.5600,2.006
26.6000,2.023
26.6400,2.214
26.6800,2.068
26.7200,2.142
26.7600,2.061
26.8000,2.105
26.8400,2.005
26.8800,2.113
26.9200,2.056
26.9600,2.089
27.0000,2.099
27.0400,2.010
27.0800,2.127
27.1200,2.059
27.1600,1.973
27.2000,2.032
27.2400,2.063
27.2800,1.978
27.3200,1.968
27.3600,1.982
27.4000,2.045
27.4400,1.991
27.4800,2.046
27.5200,2.028
27.5600,2.078
27.6000,2.018
27.6400,2.035
27.6800,1.934
27.7200,2.019
27.7600,1.876
27.8000,1.971
27.8400,2.031
27.8800,1.931
27.9200,1.887
27.9600,2.034
28.0000,1.949
28.0400,1.944
28.0800,1.963
28.1200,1.996
28.1600,1.970
28.2000,1.990
28.2400,1.925
28.2800,1.883
28.3200,2.033
28.3600,1.907
28.4000,1.880
28.4400,2.019
28.4800,1.963
28.5200,1.941
28.5600,1.951
28.6000,1.896
28.6400,1.915
28.6800,1.968
28.7200,1.877
28.7600,1.894
28.8000,1.884
28.8400,1.825
28.8800,1.939
28.9200,1.905
28.9600,1.916
29.0000,1.882
29.0400,1.886
29.0800,1.847
29.1200,1.882
29.1600,1.825
29.2000,1.858
29.2400,1.864
29.2800,1.835
29.3200,1.819
29.3600,1.801
29.4000,1.911
29.4400,1.902
29.4800,1.914
29.5200,1.842
29.5600,1.840
29.6000,1.834
29.6400,1.845
29.6800,1.828
29.7200,1.864
29.7600,1.873
29.8000,1.833
29.8400,1.798
29.8800,1.832
29.9200,1.805
29.9600,1.794
30.0000,1.875
30.0400,1.814
30.0800,1.797
30.1200,1.705
30.1600,1.808
30.2000,1.848
30.2400,1.791
30.2800,1.781
30.3200,1.783
30.3600,1.722
30.4000,1.856
30.4400,1.745
30.4800,1.793
30.5200,1.799
30.5600,1.869
30.6000,1.730
30.6400,1.771
30.6800,1.747
30.7200,1.768
30.7600,1.800
30.8000,1.721
30.8400,1.727
30.8800,1.743
30.9200,1.735
30.9600,1.754
31.0000,1.736
31.0400,1.737
31.0800,1.744
31.1200,1.791
31.1600,1.667
31.2000,1.735
31.2400,1.726
31.2800,1.743
31.3200,1.693
31.3600,1.734
31.4000,1.747
31.4400,1.676
31.4800,1.721
31.5200,1.732
31.5600,1.642
31.6000,1.691
31.6400,1.743
31.6800,1.724
31.7200,1.667
31.7600,1.625
31.8000,1.753
31.8400,1.661
31.8800,1.681
31.9200,1.696
31.9600,1.586
32.0000,1.653
32.0400,1.659
32.0800,1.568
32.1200,1.646
32.1600,1.673
32.2000,1.683
32.2400,1.582
32.2800,1.723
32.3200,1.769
32.3600,1.659
32.4000,1.605
32.4400,1.597
32.4800,1.662
32.5200,1.573
32.5600,1.600
32.6000,1.633
32.6400,1.607
32.6800,1.595
32.7200,1.535
32.7600,1.566
32.8000,1.592
32.8400,1.604
32.8800,1.638
32.9200,1.576
32.9600,1.636
33.0000,1.543
33.0400,1.553
33.0800,1.605
33.1200,1.600
33.1600,1.552
33.2000,1.612
33.2400,1.579
33.2800,1.565
33.3200,1.586
33.3600,1.585
33.4000,1.596
33.4400,1.550
33.4800,1.621
33.5200,1.573
33.5600,1.527
33.6000,1.591
33.6400,1.532
33.6800,1.581
33.7200,1.606
33.7600,1.540
33.8000,1.564
33.8400,1.555
33.8800,1.529
33.9200,1.558
33.9600,1.521
34.0000,1.495
34.0400,1.555
34.0800,1.534
34.1200,1.545
34.1600,1.553
34.2000,1.564
34.2400,1.501
34.2800,1.573
34.3200,1.491
34.3600,1.528
34.4000,1.539
34.4400,1.504
34.4800,1.494
34.5200,1.529
34.5600,1.519
34.6000,1.523
34.6400,1.527
34.6800,1.476
34.7200,1.539
34.7600,1.580
34.8000,1.488
34.8400,1.508
34.8800,1.551
34.9200,1.447
34.9600,1.586
35.0000,1.521
35.0400,1.494
35.0800,1.473
35.1200,1.499
35.1600,1.463
35.2000,1.445
35.2400,1.480
35.2800,1.467
35.3200,1.433
35.3600,1.513
35.4000,1.527
35.4400,1.462
35.4800,1.464
35.5200,1.479
35.5600,1.428
35.6000,1.439
35.6400,1.410
35.6800,1.425
35.7200,1.455
35.7600,1.445
35.8000,1.420
35.8400,1.448
35.8800,1.428
35.9200,1.425
35.9600,1.490
36.0000,1.431
36.0400,1.438
36.0800,1.437
36.1200,1.394
36.1600,1.378
36.2000,1.475
36.2400,1.462
36.2800,1.427
36.3200,1.448
36.3600,1.416
36.4000,1.444
36.4400,1.417
36.4800,1.416
36.5200,1.438
36.5600,1.445
36.6000,1.383
36.6400,1.458
36.6800,1.422
36.7200,1.433
36.7600,1.438
36.8000,1.442
36.8400,1.422
36.8800,1.417
36.9200,1.426
36.9600,1.418
37.0000,1.399
37.0400,1.495
37.0800,1.437
37.1200,1.391
37.1600,1.463
37.2000,1.493
37.2400,1.493
37.2800,1.451
37.3200,1.406
37.3600,1.410
37.4000,1.411
37.4400,1.534
37.4800,1.463
37.5200,1.512
37.5600,1.490
37.6000,1.477
37.6400,1.449
37.6800,1.481
37.7200,1.534
37.7600,1.647
37.8000,1.558
37.8400,1.592
37.8800,1.614
37.9200,1.658
37.9600,1.644
38.0000,1.716
38.0400,1.772
38.0800,1.871
38.1200,2.010
38.1600,2.014
38.2000,2.177
38.2400,2.258
38.2800,2.360
38.3200,2.529
38.3600,2.715
38.4000,2.966
38.4400,3.356
38.4800,3.653
38.5200,4.243
38.5600,4.877
38.6000,6.170
38.6400,8.007
38.6800,10.890
38.7200,13.807
38.7600,16.293
38.8000,16.893
38.8400,16.422
38.8800,14.750
38.9200,12.033
38.9600,9.685
39.0000,7.569
39.0400,5.887
39.0800,4.812
39.1200,3.909
39.1600,3.305
39.2000,2.871
39.2400,2.643
39.2800,2.390
39.3200,2.138
39.3600,1.988
39.4000,1.972
39.4400,1.943
39.4800,1.870
39.5200,1.785
39.5600,1.722
39.6000,1.687
39.6400,1.558
39.6800,1.599
39.7200,1.555
39.7600,1.554
39.8000,1.546
39.8400,1.473
39.8800,1.436
39.9200,1.430
39.9600,1.466
40.0000,1.514
40.0400,1.561
40.0800,1.606
40.1200,1.677
40.1600,1.759
40.2000,1.646
40.2400,1.531
40.2800,1.410
40.3200,1.353
40.3600,1.337
40.4000,1.315
40.4400,1.327
40.4800,1.246
40.5200,1.262
40.5600,1.254
40.6000,1.307
40.6400,1.245
40.6800,1.270
40.7200,1.213
40.7600,1.196
40.8000,1.224
40.8400,1.273
40.8800,1.179
40.9200,1.178
40.9600,1.216
41.0000,1.173
41.0400,1.227
41.0800,1.146
41.1200,1.166
41.1600,1.214
41.2000,1.190
41.2400,1.167
41.2800,1.184
41.3200,1.167
41.3600,1.160
41.4000,1.194
41.4400,1.202
41.4800,1.218
41.5200,1.181
41.5600,1.125
41.6000,1.109
41.6400,1.118
41.6800,1.156
41.7200,1.179
41.7600,1.092
41.8000,1.178
41.8400,1.101
41.8800,1.104
41.9200,1.078
41.9600,1.147
42.0000,1.176
42.0400,1.118
42.0800,1.130
42.1200,1.163
42.1600,1.129
42.2000,1.147
42.2400,1.127
42.2800,1.100
42.3200,1.099
42.3600,1.140
42.4000,1.140
42.4400,1.138
42.4800,1.146
42.5200,1.164
42.5600,1.162
42.6000,1.137
42.6400,1.093
42.6800,1.152
42.7200,1.091
42.7600,1.102
42.8000,1.111
42.8400,1.136
42.8800,1.134
42.9200,1.139
42.9600,1.060
43.0000,1.107
43.0400,1.098
43.0800,1.076
43.1200,1.094
43.1600,1.071
43.2000,1.083
43.2400,1.112
43.2800,1.069
43.3200,1.106
43.3600,1.132
43.4000,1.147
43.4400,1.096
43.4800,1.116
43.5200,1.081
43.5600,1.070
43.6000,1.130
43.6400,1.146
43.6800,1.166
43.7200,1.106
43.7600,1.139
43.8000,1.128
43.8400,1.183
43.8800,1.129
43.9200,1.162
43.9600,1.161
44.0000,1.205
44.0400,1.190
44.0800,1.194
44.1200,1.258
44.1600,1.176
44.2000,1.233
44.2400,1.246
44.2800,1.309
44.3200,1.277
44.3600,1.402
44.4000,1.417
44.4400,1.488
44.4800,1.458
44.5200,1.492
44.5600,1.592
44.6000,1.606
44.6400,1.704
44.6800,1.868
44.7200,1.992
44.7600,2.117
44.8000,2.354
44.8400,2.644
44.8800,2.975
44.9200,3.225
44.9600,3.639
45.0000,4.417
45.0400,4.664
45.0800,5.045
45.1200,5.219
45.1600,5.254
45.2000,4.882
45.2400,4.379
45.2800,4.078
45.3200,3.567
45.3600,3.086
45.4000,2.809
45.4400,2.371
45.4800,2.221
45.5200,1.976
45.5600,1.809
45.6000,1.632
45.6400,1.510
45.6800,1.430
45.7200,1.393
45.7600,1.284
45.8000,1.267
45.8400,1.203
45.8800,1.257
45.9200,1.236
45.9600,1.222
46.0000,1.167
46.0400,1.162
46.0800,1.073
46.1200,1.067
46.1600,1.073
46.2000,1.084
46.2400,1.055
46.2800,1.037
46.3200,1.056
46.3600,0.957
46.4000,1.084
46.4400,1.046
46.4800,1.056
46.5200,1.087
46.5600,1.069
46.6000,1.053
46.6400,1.048
46.6800,1.040
46.7200,1.010
46.7600,1.008
46.8000,1.012
46.8400,0.992
46.8800,1.016
46.9200,0.941
46.9600,0.975
47.0000,0.902
47.0400,0.909
47.0800,0.959
47.1200,0.894
47.1600,0.897
47.2000,0.956
47.2400,0.951
47.2800,0.878
47.3200,0.858
47.3600,0.930
47.4000,0.859
47.4400,0.929
47.4800,0.913
47.5200,0.866
47.5600,0.820
47.6000,0.868
47.6400,0.825
47.6800,0.867
47.7200,0.851
47.7600,0.888
47.8000,0.792
47.8400,0.844
47.8800,0.834
47.9200,0.846
47.9600,0.829
48.0000,0.848
48.0400,0.873
48.0800,0.848
48.1200,0.842
48.1600,0.871
48.2000,0.850
48.2400,0.860
48.2800,0.859
48.3200,0.875
48.3600,0.870
48.4000,0.843
48.4400,0.855
48.4800,0.836
48.5200,0.832
48.5600,0.823
48.6000,0.828
48.6400,0.829
48.6800,0.818
48.7200,0.813
48.7600,0.833
48.8000,0.821
48.8400,0.856
48.8800,0.826
48.9200,0.844
48.9600,0.830
49.0000,0.776
49.0400,0.849
49.0800,0.806
49.1200,0.768
49.1600,0.826
49.2000,0.767
49.2400,0.796
49.2800,0.763
49.3200,0.795
49.3600,0.739
49.4000,0.772
49.4400,0.810
49.4800,0.807
49.5200,0.765
49.5600,0.764
49.6000,0.807
49.6400,0.781
49.6800,0.801
49.7200,0.807
49.7600,0.779
49.8000,0.778
49.8400,0.776
49.8800,0.781
49.9200,0.842
49.9600,0.807
50.0000,0.755
50.0400,0.869
50.0800,0.811
50.1200,0.783
50.1600,0.789
50.2000,0.764
50.2400,0.714
50.2800,0.743
50.3200,0.781
50.3600,0.775
50.4000,0.736
50.4400,0.776
50.4800,0.767
50.5200,0.757
50.5600,0.722
50.6000,0.727
50.6400,0.810
50.6800,0.714
50.7200,0.766
50.7600,0.722
50.8000,0.712
50.8400,0.751
50.8800,0.710
50.9200,0.755
50.9600,0.787
51.0000,0.756
51.0400,0.695
51.0800,0.731
51.1200,0.779
51.1600,0.746
51.2000,0.692
51.2400,0.737
51.2800,0.704
51.3200,0.721
51.3600,0.711
51.4000,0.734
51.4400,0.793
51.4800,0.770
51.5200,0.740
51.5600,0.733
51.6000,0.708
51.6400,0.767
51.6800,0.682
51.7200,0.744
51.7600,0.720
51.8000,0.715
51.8400,0.687
51.8800,0.682
51.9200,0.710
51.9600,0.748
52.0000,0.671
52.0400,0.715
52.0800,0.694
52.1200,0.682
52.1600,0.757
52.2000,0.663
52.2400,0.734
52.2800,0.706
52.3200,0.711
52.3600,0.719
52.4000,0.680
52.4400,0.753
52.4800,0.712
52.5200,0.678
52.5600,0.694
52.6000,0.714
52.6400,0.695
52.6800,0.712
52.7200,0.734
52.7600,0.697
52.8000,0.644
52.8400,0.702
52.8800,0.730
52.9200,0.727
52.9600,0.666
53.0000,0.690
53.0400,0.678
53.0800,0.678
53.1200,0.665
53.1600,0.719
53.2000,0.716
53.2400,0.712
53.2800,0.648
53.3200,0.736
53.3600,0.674
53.4000,0.668
53.4400,0.671
53.4800,0.627
53.5200,0.705
53.5600,0.673
53.6000,0.681
53.6400,0.681
53.6800,0.642
53.7200,0.656
53.7600,0.668
53.8000,0.658
53.8400,0.675
53.8800,0.634
53.9200,0.656
53.9600,0.651
54.0000,0.674
54.0400,0.663
54.0800,0.676
54.1200,0.624
54.1600,0.653
54.2000,0.665
54.2400,0.648
54.2800,0.665
54.3200,0.611
54.3600,0.671
54.4000,0.657
54.4400,0.630
54.4800,0.629
54.5200,0.702
54.5600,0.599
54.6000,0.639
54.6400,0.653
54.6800,0.628
54.7200,0.613
54.7600,0.663
54.8000,0.631
54.8400,0.626
54.8800,0.664
54.9200,0.611
54.9600,0.639
55.0000,0.638
55.0400,0.607
55.0800,0.651
55.1200,0.633
55.1600,0.678
55.2000,0.642
55.2400,0.627
55.2800,0.677
55.3200,0.640
55.3600,0.688
55.4000,0.681
55.4400,0.609
55.4800,0.605
55.5200,0.644
55.5600,0.627
55.6000,0.629
55.6400,0.642
55.6800,0.613
55.7200,0.617
55.7600,0.644
55.8000,0.642
55.8400,0.628
55.8800,0.643
55.9200,0.603
55.9600,0.640
56.0000,0.594
56.0400,0.621
56.0800,0.628
56.1200,0.618
56.1600,0.614
56.2000,0.627
56.2400,0.623
56.2800,0.615
56.3200,0.685
56.3600,0.650
56.4000,0.615
56.4400,0.621
56.4800,0.592
56.5200,0.598
56.5600,0.636
56.6000,0.596
56.6400,0.608
56.6800,0.624
56.7200,0.598
56.7600,0.577
56.8000,0.616
56.8400,0.584
56.8800,0.609
56.9200,0.619
56.9600,0.592
57.0000,0.649
57.0400,0.604
57.0800,0.595
57.1200,0.603
57.1600,0.618
57.2000,0.594
57.2400,0.594
57.2800,0.630
57.3200,0.655
57.3600,0.574
57.4000,0.600
57.4400,0.624
57.4800,0.591
57.5200,0.590
57.5600,0.605
57.6000,0.612
57.6400,0.615
57.6800,0.581
57.7200,0.581
57.7600,0.586
57.8000,0.617
57.8400,0.587
57.8800,0.590
57.9200,0.562
57.9600,0.579
58.0000,0.563
58.0400,0.569
58.0800,0.558
58.1200,0.589
58.1600,0.594
58.2000,0.611
58.2400,0.564
58.2800,0.635
58.3200,0.563
58.3600,0.562
58.4000,0.557
58.4400,0.609
58.4800,0.578
58.5200,0.566
58.5600,0.552
58.6000,0.554
58.6400,0.565
58.6800,0.587
58.7200,0.566
58.7600,0.565
58.8000,0.553
58.8400,0.546
58.8800,0.584
58.9200,0.578
58.9600,0.588
59.0000,0.570
59.0400,0.527
59.0800,0.555
59.1200,0.589
59.1600,0.582
59.2000,0.599
59.2400,0.547
59.2800,0.552
59.3200,0.587
59.3600,0.556
59.4000,0.568
59.4400,0.519
59.4800,0.554
59.5200,0.558
59.5600,0.584
59.6000,0.552
59.6400,0.587
59.6800,0.560
59.7200,0.533
59.7600,0.554
59.8000,0.562
59.8400,0.572
59.8800,0.539
59.9200,0.560
59.9600,0.557
60.0000,0.537
60.0400,0.604
60.0800,0.528
60.1200,0.533
60.1600,0.570
60.2000,0.536
60.2400,0.554
60.2800,0.565
60.3200,0.534
60.3600,0.536
60.4000,0.542
60.4400,0.556
60.4800,0.529
60.5200,0.552
60.5600,0.583
60.6000,0.529
60.6400,0.573
60.6800,0.546
60.7200,0.543
60.7600,0.548
60.8000,0.497
60.8400,0.514
60.8800,0.537
60.9200,0.498
60.9600,0.520
61.0000,0.558
61.0400,0.528
61.0800,0.541
61.1200,0.554
61.1600,0.534
61.2000,0.519
61.2400,0.511
61.2800,0.557
61.3200,0.571
61.3600,0.511
61.4000,0.528
61.4400,0.538
61.4800,0.484
61.5200,0.498
61.5600,0.537
61.6000,0.550
61.6400,0.593
61.6800,0.635
61.7200,0.571
61.7600,0.533
61.8000,0.541
61.8400,0.536
61.8800,0.498
61.9200,0.538
61.9600,0.533
62.0000,0.557
62.0400,0.582
62.0800,0.520
62.1200,0.502
62.1600,0.477
62.2000,0.485
62.2400,0.504
62.2800,0.509
62.3200,0.499
62.3600,0.534
