theta,intensity
5.0000,4.596
5.0400,4.539
5.0800,4.565
5.1200,4.557
5.1600,4.513
5.2000,4.429
5.2400,4.383
5.2800,4.399
5.3200,4.326
5.3600,4.343
5.4000,4.352
5.4400,4.249
5.4800,4.197
5.5200,4.204
5.5600,4.252
5.6000,4.283
5.6400,4.246
5.6800,4.141
5.7200,4.173
5.7600,4.109
5.8000,4.047
5.8400,4.185
5.8800,4.068
5.9200,4.077
5.9600,4.146
6.0000,4.171
6.0400,4.111
6.0800,4.027
6.1200,4.136
6.1600,4.080
6.2000,4.049
6.2400,4.117
6.2800,4.075
6.3200,4.026
6.3600,4.078
6.4000,4.020
6.4400,4.037
6.4800,3.996
6.5200,4.048
6.5600,3.881
6.6000,3.952
6.6400,4.020
6.6800,3.962
6.7200,4.000
6.7600,3.865
6.8000,4.085
6.8400,4.009
6.8800,3.983
6.9200,4.065
6.9600,4.034
7.0000,4.049
7.0400,3.951
7.0800,4.008
7.1200,3.968
7.1600,3.964
7.2000,3.933
7.2400,3.938
7.2800,3.897
7.3200,3.953
7.3600,3.878
7.4000,3.949
7.4400,3.903
7.4800,3.972
7.5200,3.920
7.5600,3.921
7.6000,3.940
7.6400,3.842
7.6800,3.940
7.7200,3.902
7.7600,3.846
7.8000,3.907
7.8400,3.765
7.8800,3.798
7.9200,3.734
7.9600,3.829
8.0000,3.778
8.0400,3.780
8.0800,3.781
8.1200,3.870
8.1600,3.780
8.2000,3.710
8.2400,3.729
8.2800,3.878
8.3200,3.810
8.3600,3.783
8.4000,3.737
8.4400,3.858
8.4800,3.817
8.5200,3.800
8.5600,3.797
8.6000,3.809
8.6400,3.792
8.6800,3.677
8.7200,3.784
8.7600,3.777
8.8000,3.675
8.8400,3.858
8.8800,3.663
8.9200,3.756
8.9600,3.715
9.0000,3.716
9.0400,3.731
9.0800,3.578
9.1200,3.670
9.1600,3.754
9.2000,3.625
9.2400,3.695
9.2800,3.712
9.3200,3.634
9.3600,3.668
9.4000,3.642
9.4400,3.654
9.4800,3.623
9.5200,3.741
9.5600,3.647
9.6000,3.658
9.6400,3.609
9.6800,3.673
9.7200,3.585
9.7600,3.619
9.8000,3.732
9.8400,3.670
9.8800,3.539
9.9200,3.606
9.9600,3.638
10.0000,3.629
10.0400,3.617
10.0800,3.630
10.1200,3.588
10.1600,3.537
10.2000,3.502
10.2400,3.571
10.2800,3.524
10.3200,3.471
10.3600,3.539
10.4000,3.510
10.4400,3.525
10.4800,3.678
10.5200,3.591
10.5600,3.598
10.6000,3.458
10.6400,3.535
10.6800,3.596
10.7200,3.529
10.7600,3.673
10.8000,3.489
10.8400,3.571
10.8800,3.547
10.9200,3.546
10.9600,3.547
11.0000,3.530
11.0400,3.569
11.0800,3.487
11.1200,3.596
11.1600,3.533
11.2000,3.463
11.2400,3.445
11.2800,3.533
11.3200,3.587
11.3600,3.520
11.4000,3.450
11.4400,3.442
11.4800,3.418
11.5200,3.458
11.5600,3.454
11.6000,3.433
11.6400,3.475
11.6800,3.435
11.7200,3.376
11.7600,3.308
11.8000,3.388
11.8400,3.393
11.8800,3.436
11.9200,3.447
11.9600,3.414
12.0000,3.464
12.0400,3.474
12.0800,3.441
12.1200,3.473
12.1600,3.352
12.2000,3.430
12.2400,3.430
12.2800,3.470
12.3200,3.496
12.3600,3.404
12.4000,3.322
12.4400,3.393
12.4800,3.314
12.5200,3.251
12.5600,3.403
12.6000,3.378
12.6400,3.297
12.6800,3.291
12.7200,3.399
12.7600,3.294
12.8000,3.300
12.8400,3.338
12.8800,3.283
12.9200,3.310
12.9600,3.334
13.0000,3.307
13.0400,3.239
13.0800,3.271
13.1200,3.285
13.1600,3.371
13.2000,3.340
13.2400,3.292
13.2800,3.391
13.3200,3.149
13.3600,3.274
13.4000,3.245
13.4400,3.167
13.4800,3.222
13.5200,3.295
13.5600,3.284
13.6000,3.290
13.6400,3.355
13.6800,3.200
13.7200,3.290
13.7600,3.209
13.8000,3.182
13.8400,3.244
13.8800,3.230
13.9200,3.240
13.9600,3.140
14.0000,3.260
14.0400,3.169
14.0800,3.157
14.1200,3.139
14.1600,3.251
14.2000,3.241
14.2400,3.196
14.2800,3.236
14.3200,3.151
14.3600,3.184
14.4000,3.194
14.4400,3.148
14.4800,3.148
14.5200,3.134
14.5600,3.188
14.6000,3.271
14.6400,3.162
14.6800,3.221
14.7200,3.114
14.7600,3.151
14.8000,3.092
14.8400,3.157
14.8800,3.080
14.9200,3.186
14.9600,3.102
15.0000,3.151
15.0400,3.128
15.0800,3.179
15.1200,3.119
15.1600,3.102
15.2000,3.225
15.2400,3.081
15.2800,3.132
15.3200,3.033
15.3600,3.086
15.4000,3.080
15.4400,3.070
15.4800,3.080
15.5200,3.029
15.5600,2.980
15.6000,3.042
15.6400,3.097
15.6800,3.075
15.7200,3.084
15.7600,3.038
15.8000,3.036
15.8400,3.056
15.8800,2.966
15.9200,2.985
15.9600,3.025
16.0000,2.982
16.0400,3.091
16.0800,2.941
16.1200,3.001
16.1600,3.117
16.2000,3.078
16.2400,2.955
16.2800,2.946
16.3200,2.980
16.3600,2.930
16.4000,3.054
16.4400,2.831
16.4800,2.998
16.5200,3.011
16.5600,2.990
16.6000,2.972
16.6400,2.996
16.6800,2.946
16.7200,2.885
16.7600,2.974
16.8000,2.951
16.8400,3.046
16.8800,2.961
16.9200,2.907
16.9600,2.899
17.0000,2.987
17.0400,2.992
17.0800,2.904
17.1200,2.911
17.1600,2.943
17.2000,2.984
17.2400,3.026
17.2800,2.892
17.3200,2.934
17.3600,2.821
17.4000,2.924
17.4400,2.921
17.4800,2.854
17.5200,2.888
17.5600,2.893
17.6000,2.892
17.6400,2.891
17.6800,2.823
17.7200,2.887
17.7600,2.947
17.8000,2.855
17.8400,2.845
17.8800,2.862
17.9200,2.829
17.9600,2.774
18.0000,2.866
18.0400,2.838
18.0800,2.893
18.1200,2.767
18.1600,2.864
18.2000,2.835
18.2400,2.851
18.2800,2.856
18.3200,2.870
18.3600,2.812
18.4000,2.857
18.4400,2.759
18.4800,2.716
18.5200,2.826
18.5600,2.747
18.6000,2.790
18.6400,2.757
18.6800,2.783
18.7200,2.785
18.7600,2.695
18.8000,2.775
18.8400,2.847
18.8800,2.813
18.9200,2.778
18.9600,2.734
19.0000,2.747
19.0400,2.785
19.0800,2.643
19.1200,2.830
19.1600,2.665
19.2000,2.699
19.2400,2.723
19.2800,2.732
19.3200,2.689
19.3600,2.631
19.4000,2.676
19.4400,2.725
19.4800,2.670
19.5200,2.747
19.5600,2.661
19.6000,2.774
19.6400,2.713
19.6800,2.646
19.7200,2.588
19.7600,2.669
19.8000,2.758
19.8400,2.671
19.8800,2.665
19.9200,2.667
19.9600,2.614
20.0000,2.731
20.0400,2.625
20.0800,2.638
20.1200,2.664
20.1600,2.672
20.2000,2.684
20.2400,2.712
20.2800,2.707
20.3200,2.648
20.3600,2.597
20.4000,2.635
20.4400,2.616
20.4800,2.654
20.5200,2.592
20.5600,2.605
20.6000,2.628
20.6400,2.577
20.6800,2.582
20.7200,2.531
20.7600,2.572
20.8000,2.604
20.8400,2.564
20.8800,2.536
20.9200,2.528
20.9600,2.618
21.0000,2.638
21.0400,2.493
21.0800,2.521
21.1200,2.596
21.1600,2.584
21.2000,2.563
21.2400,2.498
21.2800,2.577
21.3200,2.518
21.3600,2.563
21.4000,2.507
21.4400,2.451
21.4800,2.509
21.5200,2.482
21.5600,2.521
21.6000,2.513
21.6400,2.484
21.6800,2.486
21.7200,2.528
21.7600,2.534
21.8000,2.542
21.8400,2.477
21.8800,2.468
21.9200,2.552
21.9600,2.467
22.0000,2.473
22.0400,2.431
22.0800,2.413
22.1200,2.460
22.1600,2.455
22.2000,2.405
22.2400,2.458
22.2800,2.458
22.3200,2.414
22.3600,2.365
22.4000,2.447
22.4400,2.512
22.4800,2.401
22.5200,2.385
22.5600,2.436
22.6000,2.506
22.6400,2.390
22.6800,2.403
22.7200,2.450
22.7600,2.439
22.8000,2.499
22.8400,2.399
22.8800,2.420
22.9200,2.296
22.9600,2.434
23.0000,2.427
23.0400,2.444
23.0800,2.442
23.1200,2.403
23.1600,2.377
23.2000,2.323
23.2400,2.381
23.2800,2.394
23.3200,2.330
23.3600,2.361
23.4000,2.397
23.4400,2.379
23.4800,2.271
23.5200,2.340
23.5600,2.267
23.6000,2.419
23.6400,2.339
23.6800,2.339
23.7200,2.352
23.7600,2.355
23.8000,2.308
23.8400,2.290
23.8800,2.336
23.9200,2.304
23.9600,2.288
24.0000,2.305
24.0400,2.304
24.0800,2.358
24.1200,2.305
24.1600,2.304
24.2000,2.265
24.2400,2.227
24.2800,2.260
24.3200,2.212
24.3600,2.283
24.4000,2.242
24.4400,2.251
24.4800,2.182
24.5200,2.173
24.5600,2.240
24.6000,2.214
24.6400,2.202
24.6800,2.218
24.7200,2.202
24.7600,2.235
24.8000,2.202
24.8400,2.158
24.8800,2.197
24.9200,2.170
24.9600,2.242
25.0000,2.141
25.0400,2.222
25.0800,2.241
25.1200,2.222
25.1600,2.140
25.2000,2.121
25.2400,2.152
25.2800,2.168
25.3200,2.138
25.3600,2.088
25.4000,2.254
25.4400,2.271
25.4800,2.293
25.5200,2.120
25.5600,2.212
25.6000,2.223
25.6400,2.196
25.6800,2.200
25.7200,2.168
25.7600,2.061
25.8000,2.088
25.8400,2.090
25.8800,2.169
25.9200,2.128
25.9600,2.082
26.0000,2.082
26.0400,2.143
26.0800,2.186
26.1200,2.081
26.1600,2.091
26.2000,2.088
26.2400,2.144
26.2800,2.130
26.3200,2.148
26.3600,2.074
26.4000,2.056
26.4400,2.025
26.4800,2.031
26.5200,2.126
26.5600,2.106
26.6000,2.112
26.6400,2.064
26.6800,2.073
26.7200,2.079
26.7600,2.163
26.8000,2.023
26.8400,1.961
26.8800,2.060
26.9200,1.993
26.9600,2.045
27.0000,2.007
27.0400,2.058
27.0800,2.020
27.1200,2.019
27.1600,1.956
27.2000,2.048
27.2400,2.107
27.2800,1.983
27.3200,1.992
27.3600,1.960
27.4000,1.958
27.4400,2.045
27.4800,2.045
27.5200,1.983
27.5600,2.000
27.6000,1.907
27.6400,1.907
27.6800,2.060
27.7200,1.984
27.7600,1.962
27.8000,1.980
27.8400,2.013
27.8800,1.992
27.9200,1.990
27.9600,1.989
28.0000,1.967
28.0400,2.014
28.0800,2.000
28.1200,1.883
28.1600,1.901
28.2000,1.927
28.2400,1.934
28.2800,1.930
28.3200,1.912
28.3600,1.922
28.4000,1.918
28.4400,1.870
28.4800,1.937
28.5200,1.878
28.5600,1.917
28.6000,1.896
28.6400,1.838
28.6800,1.964
28.7200,1.896
28.7600,1.866
28.8000,1.991
28.8400,2.020
28.8800,1.918
28.9200,1.914
28.9600,1.817
29.0000,1.969
29.0400,1.927
29.0800,1.899
29.1200,1.876
29.1600,1.877
29.2000,1.927
29.2400,1.877
29.2800,1.957
29.3200,1.870
29.3600,1.845
29.4000,1.819
29.4400,1.723
29.4800,1.845
29.5200,1.801
29.5600,1.809
29.6000,1.858
29.6400,1.907
29.6800,1.803
29.7200,1.829
29.7600,1.797
29.8000,1.869
29.8400,1.863
29.8800,1.899
29.9200,1.852
29.9600,1.782
30.0000,1.834
30.0400,1.839
30.0800,1.761
30.1200,1.804
30.1600,1.746
30.2000,1.746
30.2400,1.842
30.2800,1.834
30.3200,1.701
30.3600,1.776
30.4000,1.787
30.4400,1.800
30.4800,1.850
30.5200,1.793
30.5600,1.762
30.6000,1.792
30.6400,1.821
30.6800,1.796
30.7200,1.783
30.7600,1.803
30.8000,1.736
30.8400,1.751
30.8800,1.739
30.9200,1.782
30.9600,1.756
31.0000,1.785
31.0400,1.668
31.0800,1.761
31.1200,1.692
31.1600,1.800
31.2000,1.810
31.2400,1.735
31.2800,1.652
31.3200,1.709
31.3600,1.688
31.4000,1.665
31.4400,1.776
31.4800,1.767
31.5200,1.692
31.5600,1.757
31.6000,1.702
31.6400,1.717
31.6800,1.768
31.7200,1.636
31.7600,1.729
31.8000,1.718
31.8400,1.680
31.8800,1.697
31.9200,1.668
31.9600,1.712
32.0000,1.744
32.0400,1.693
32.0800,1.663
32.1200,1.602
32.1600,1.684
32.2000,1.594
32.2400,1.632
32.2800,1.581
32.3200,1.577
32.3600,1.637
32.4000,1.663
32.4400,1.667
32.4800,1.692
32.5200,1.650
32.5600,1.652
32.6000,1.616
32.6400,1.658
32.6800,1.589
32.7200,1.678
32.7600,1.584
32.8000,1.611
32.8400,1.650
32.8800,1.586
32.9200,1.595
32.9600,1.588
33.0000,1.656
33.0400,1.630
33.0800,1.621
33.1200,1.627
33.1600,1.565
33.2000,1.603
33.2400,1.602
33.2800,1.620
33.3200,1.598
33.3600,1.615
33.4000,1.613
33.4400,1.594
33.4800,1.611
33.5200,1.625
33.5600,1.620
33.6000,1.637
33.6400,1.492
33.6800,1.567
33.7200,1.533
33.7600,1.533
33.8000,1.525
33.8400,1.572
33.8800,1.498
33.9200,1.543
33.9600,1.551
34.0000,1.653
34.0400,1.542
34.0800,1.594
34.1200,1.585
34.1600,1.583
34.2000,1.549
34.2400,1.552
34.2800,1.518
34.3200,1.486
34.3600,1.497
34.4000,1.505
34.4400,1.455
34.4800,1.550
34.5200,1.565
34.5600,1.604
34.6000,1.510
34.6400,1.517
34.6800,1.525
34.7200,1.503
34.7600,1.537
34.8000,1.495
34.8400,1.504
34.8800,1.497
34.9200,1.519
34.9600,1.460
35.0000,1.529
35.0400,1.479
35.0800,1.508
35.1200,1.485
35.1600,1.527
35.2000,1.527
35.2400,1.522
35.2800,1.470
35.3200,1.555
35.3600,1.525
35.4000,1.472
35.4400,1.425
35.4800,1.437
35.5200,1.478
35.5600,1.437
35.6000,1.524
35.6400,1.452
35.6800,1.481
35.7200,1.469
35.7600,1.527
35.8000,1.476
35.8400,1.509
35.8800,1.489
35.9200,1.454
35.9600,1.466
36.0000,1.448
36.0400,1.484
36.0800,1.479
36.1200,1.470
36.1600,1.488
36.2000,1.491
36.2400,1.424
36.2800,1.535
36.3200,1.521
36.3600,1.451
36.4000,1.423
36.4400,1.427
36.4800,1.480
36.5200,1.488
36.5600,1.423
36.6000,1.460
36.6400,1.470
36.6800,1.479
36.7200,1.440
36.7600,1.436
36.8000,1.431
36.8400,1.526
36.8800,1.529
36.9200,1.463
36.9600,1.558
37.0000,1.533
37.0400,1.564
37.0800,1.428
37.1200,1.546
37.1600,1.556
37.2000,1.556
37.2400,1.569
37.2800,1.584
37.3200,1.556
37.3600,1.568
37.4000,1.518
37.4400,1.554
37.4800,1.614
37.5200,1.546
37.5600,1.574
37.6000,1.576
37.6400,1.688
37.6800,1.671
37.7200,1.707
37.7600,1.767
37.8000,1.717
37.8400,1.765
37.8800,1.780
37.9200,1.843
37.9600,1.901
38.0000,1.935
38.0400,1.976
38.0800,2.092
38.1200,2.117
38.1600,2.132
38.2000,2.281
38.2400,2.351
38.2800,2.479
38.3200,2.515
38.3600,2.649
38.4000,2.706
38.4400,2.781
38.4800,2.856
38.5200,3.013
38.5600,3.022
38.6000,3.075
38.6400,3.253
38.6800,3.355
38.7200,3.389
38.7600,3.516
38.8000,3.817
38.8400,3.841
38.8800,4.021
38.9200,4.159
38.9600,4.247
39.0000,4.188
39.0400,3.988
39.0800,3.855
39.1200,3.736
39.1600,3.550
39.2000,3.409
39.2400,3.391
39.2800,3.376
39.3200,3.394
39.3600,3.202
39.4000,3.061
39.4400,3.194
39.4800,3.068
39.5200,3.045
39.5600,3.051
39.6000,2.978
39.6400,2.875
39.6800,2.900
39.7200,2.761
39.7600,2.848
39.8000,2.775
39.8400,2.776
39.8800,2.698
39.9200,2.591
39.9600,2.566
40.0000,2.585
40.0400,2.486
40.0800,2.448
40.1200,2.363
40.1600,2.331
40.2000,2.336
40.2400,2.287
40.2800,2.220
40.3200,2.042
40.3600,2.087
40.4000,2.062
40.4400,2.010
40.4800,1.911
40.5200,1.864
40.5600,1.819
40.6000,1.821
40.6400,1.749
40.6800,1.779
40.7200,1.726
40.7600,1.612
40.8000,1.648
40.8400,1.660
40.8800,1.600
40.9200,1.569
40.9600,1.562
41.0000,1.595
41.0400,1.540
41.0800,1.555
41.1200,1.491
41.1600,1.462
41.2000,1.497
41.2400,1.399
41.2800,1.464
41.3200,1.403
41.3600,1.349
41.4000,1.430
41.4400,1.385
41.4800,1.377
41.5200,1.373
41.5600,1.354
41.6000,1.338
41.6400,1.392
41.6800,1.371
41.7200,1.267
41.7600,1.349
41.8000,1.301
41.8400,1.268
41.8800,1.307
41.9200,1.322
41.9600,1.299
42.0000,1.292
42.0400,1.326
42.0800,1.239
42.1200,1.328
42.1600,1.310
42.2000,1.294
42.2400,1.243
42.2800,1.273
42.3200,1.222
42.3600,1.312
42.4000,1.231
42.4400,1.253
42.4800,1.197
42.5200,1.258
42.5600,1.213
42.6000,1.194
42.6400,1.261
42.6800,1.268
42.7200,1.261
42.7600,1.220
42.8000,1.251
42.8400,1.257
42.8800,1.189
42.9200,1.166
42.9600,1.264
43.0000,1.213
43.0400,1.290
43.0800,1.241
43.1200,1.204
43.1600,1.236
43.2000,1.251
43.2400,1.220
43.2800,1.255
43.3200,1.206
43.3600,1.238
43.4000,1.276
43.4400,1.262
43.4800,1.253
43.5200,1.259
43.5600,1.257
43.6000,1.203
43.6400,1.188
43.6800,1.248
43.7200,1.280
43.7600,1.288
43.8000,1.324
43.8400,1.315
43.8800,1.290
43.9200,1.301
43.9600,1.300
44.0000,1.340
44.0400,1.291
44.0800,1.301
44.1200,1.401
44.1600,1.380
44.2000,1.317
44.2400,1.364
44.2800,1.332
44.3200,1.395
44.3600,1.365
44.4000,1.404
44.4400,1.456
44.4800,1.438
44.5200,1.493
44.5600,1.491
44.6000,1.487
44.6400,1.533
44.6800,1.447
44.7200,1.519
44.7600,1.514
44.8000,1.555
44.8400,1.510
44.8800,1.574
44.9200,1.639
44.9600,1.585
45.0000,1.618
45.0400,1.712
45.0800,1.655
45.1200,1.677
45.1600,1.714
45.2000,1.793
45.2400,1.811
45.2800,1.667
45.3200,1.738
45.3600,1.784
45.4000,1.751
45.4400,1.674
45.4800,1.645
45.5200,1.675
45.5600,1.695
45.6000,1.579
45.6400,1.594
45.6800,1.559
45.7200,1.546
45.7600,1.569
45.8000,1.535
45.8400,1.468
45.8800,1.469
45.9200,1.437
45.9600,1.500
46.0000,1.462
46.0400,1.443
46.0800,1.384
46.1200,1.421
46.1600,1.399
46.2000,1.347
46.2400,1.331
46.2800,1.379
46.3200,1.378
46.3600,1.309
46.4000,1.327
46.4400,1.277
46.4800,1.234
46.5200,1.327
46.5600,1.318
46.6000,1.212
46.6400,1.220
46.6800,1.242
46.7200,1.214
46.7600,1.207
46.8000,1.207
46.8400,1.130
46.8800,1.123
46.9200,1.162
46.9600,1.178
47.0000,1.164
47.0400,1.140
47.0800,1.036
47.1200,1.105
47.1600,1.077
47.2000,1.116
47.2400,1.078
47.2800,1.024
47.3200,1.028
47.3600,1.009
47.4000,1.018
47.4400,1.033
47.4800,0.986
47.5200,0.938
47.5600,1.037
47.6000,0.997
47.6400,1.018
47.6800,0.976
47.7200,0.903
47.7600,0.973
47.8000,1.014
47.8400,0.957
47.8800,0.967
47.9200,0.905
47.9600,0.928
48.0000,0.971
48.0400,0.880
48.0800,0.926
48.1200,0.937
48.1600,0.912
48.2000,0.901
48.2400,0.903
48.2800,0.872
48.3200,0.875
48.3600,0.875
48.4000,0.923
48.4400,0.880
48.4800,0.848
48.5200,0.835
48.5600,0.933
48.6000,0.874
48.6400,0.881
48.6800,0.871
48.7200,0.878
48.7600,0.871
48.8000,0.809
48.8400,0.811
48.8800,0.829
48.9200,0.869
48.9600,0.831
49.0000,0.831
49.0400,0.854
49.0800,0.846
49.1200,0.842
49.1600,0.826
49.2000,0.854
49.2400,0.829
49.2800,0.821
49.3200,0.863
49.3600,0.876
49.4000,0.830
49.4400,0.827
49.4800,0.845
49.5200,0.826
49.5600,0.814
49.6000,0.810
49.6400,0.840
49.6800,0.791
49.7200,0.783
49.7600,0.826
49.8000,0.819
49.8400,0.824
49.8800,0.829
49.9200,0.794
49.9600,0.814
50.0000,0.778
50.0400,0.799
50.0800,0.773
50.1200,0.772
50.1600,0.798
50.2000,0.800
50.2400,0.778
50.2800,0.811
50.3200,0.812
50.3600,0.814
50.4000,0.755
50.4400,0.742
50.4800,0.760
50.5200,0.809
50.5600,0.767
50.6000,0.749
50.6400,0.751
50.6800,0.790
50.7200,0.785
50.7600,0.777
50.8000,0.817
50.8400,0.755
50.8800,0.778
50.9200,0.728
50.9600,0.791
51.0000,0.725
51.0400,0.719
51.0800,0.763
51.1200,0.767
51.1600,0.814
51.2000,0.759
51.2400,0.711
51.2800,0.777
51.3200,0.738
51.3600,0.765
51.4000,0.796
51.4400,0.734
51.4800,0.752
51.5200,0.707
51.5600,0.749
51.6000,0.727
51.6400,0.707
51.6800,0.706
51.7200,0.710
51.7600,0.764
51.8000,0.706
51.8400,0.710
51.8800,0.735
51.9200,0.732
51.9600,0.739
52.0000,0.741
52.0400,0.674
52.0800,0.748
52.1200,0.747
52.1600,0.718
52.2000,0.729
52.2400,0.699
52.2800,0.714
52.3200,0.721
52.3600,0.730
52.4000,0.749
52.4400,0.686
52.4800,0.732
52.5200,0.726
52.5600,0.721
52.6000,0.712
52.6400,0.685
52.6800,0.688
52.7200,0.688
52.7600,0.714
52.8000,0.713
52.8400,0.725
52.8800,0.746
52.9200,0.733
52.9600,0.702
53.0000,0.697
53.0400,0.659
53.0800,0.728
53.1200,0.707
53.1600,0.678
53.2000,0.655
53.2400,0.719
53.2800,0.688
53.3200,0.732
53.3600,0.700
53.4000,0.680
53.4400,0.692
53.4800,0.678
53.5200,0.690
53.5600,0.637
53.6000,0.717
53.6400,0.692
53.6800,0.669
53.7200,0.651
53.7600,0.649
53.8000,0.669
53.8400,0.701
53.8800,0.689
53.9200,0.627
53.9600,0.673
54.0000,0.693
54.0400,0.647
54.0800,0.668
54.1200,0.677
54.1600,0.651
54.2000,0.681
54.2400,0.692
54.2800,0.670
54.3200,0.692
54.3600,0.686
54.4000,0.661
54.4400,0.691
54.4800,0.666
54.5200,0.637
54.5600,0.639
54.6000,0.676
54.6400,0.614
54.6800,0.592
54.7200,0.664
54.7600,0.649
54.8000,0.640
54.8400,0.595
54.8800,0.625
54.9200,0.656
54.9600,0.659
55.0000,0.680
55.0400,0.651
55.0800,0.648
55.1200,0.718
55.1600,0.678
55.2000,0.616
55.2400,0.685
55.2800,0.619
55.3200,0.655
55.3600,0.636
55.4000,0.629
55.4400,0.665
55.4800,0.705
55.5200,0.647
55.5600,0.629
55.6000,0.654
55.6400,0.614
55.6800,0.610
55.7200,0.619
55.7600,0.632
55.8000,0.671
55.8400,0.625
55.8800,0.631
55.9200,0.638
55.9600,0.634
56.0000,0.615
56.0400,0.636
56.0800,0.652
56.1200,0.585
56.1600,0.608
56.2000,0.625
56.2400,0.629
56.2800,0.605
56.3200,0.628
56.3600,0.617
56.4000,0.638
56.4400,0.641
56.4800,0.655
56.5200,0.604
56.5600,0.605
56.6000,0.607
56.6400,0.590
56.6800,0.603
56.7200,0.650
56.7600,0.617
56.8000,0.596
56.8400,0.605
56.8800,0.641
56.9200,0.624
56.9600,0.619
57.0000,0.579
57.0400,0.645
57.0800,0.595
57.1200,0.626
57.1600,0.633
57.2000,0.601
57.2400,0.594
57.2800,0.587
57.3200,0.593
57.3600,0.622
57.4000,0.629
57.4400,0.602
57.4800,0.567
57.5200,0.612
57.5600,0.623
57.6000,0.585
57.6400,0.600
57.6800,0.574
57.7200,0.566
57.7600,0.622
57.8000,0.613
57.8400,0.638
57.8800,0.604
57.9200,0.584
57.9600,0.599
58.0000,0.577
58.0400,0.613
58.0800,0.606
58.1200,0.619
58.1600,0.615
58.2000,0.584
58.2400,0.621
58.2800,0.601
58.3200,0.576
58.3600,0.572
58.4000,0.613
58.4400,0.577
58.4800,0.567
58.5200,0.591
58.5600,0.607
58.6000,0.563
58.6400,0.602
58.6800,0.597
58.7200,0.628
58.7600,0.548
58.8000,0.565
58.8400,0.586
58.8800,0.594
58.9200,0.588
58.9600,0.560
59.0000,0.608
59.0400,0.570
59.0800,0.580
59.1200,0.567
59.1600,0.530
59.2000,0.562
59.2400,0.575
59.2800,0.540
59.3200,0.588
59.3600,0.573
59.4000,0.577
59.4400,0.565
59.4800,0.599
59.5200,0.558
59.5600,0.576
59.6000,0.553
59.6400,0.571
59.6800,0.590
59.7200,0.601
59.7600,0.581
59.8000,0.565
59.8400,0.529
59.8800,0.570
59.9200,0.567
59.9600,0.546
60.0000,0.553
60.0400,0.558
60.0800,0.560
60.1200,0.602
60.1600,0.566
60.2000,0.586
60.2400,0.582
60.2800,0.584
60.3200,0.528
60.3600,0.551
60.4000,0.537
60.4400,0.550
60.4800,0.545
60.5200,0.554
60.5600,0.579
60.6000,0.570
60.6400,0.556
60.6800,0.557
60.7200,0.557
60.7600,0.551
60.8000,0.565
60.8400,0.558
60.8800,0.543
60.9200,0.547
60.9600,0.566
61.0000,0.538
61.0400,0.553
61.0800,0.519
61.1200,0.545
61.1600,0.531
61.2000,0.523
61.2400,0.558
61.2800,0.583
61.3200,0.541
61.3600,0.544
61.4000,0.522
61.4400,0.540
61.4800,0.541
61.5200,0.554
61.5600,0.554
61.6000,0.537
61.6400,0.577
61.6800,0.648
61.7200,0.609
61.7600,0.613
61.8000,0.555
61.8400,0.528
61.8800,0.555
61.9200,0.581
61.9600,0.548
62.0000,0.556
62.0400,0.510
62.0800,0.530
62.1200,0.536
62.1600,0.544
62.2000,0.552
62.2400,0.511
62.2800,0.573
62.3200,0.519
62.3600,0.556
62.4000,0.569
