theta,intensity
5.0000,4.706
5.0400,4.758
5.0800,4.759
5.1200,4.647
5.1600,4.670
5.2000,4.624
5.2400,4.506
5.2800,4.684
5.3200,4.509
5.3600,4.567
5.4000,4.528
5.4400,4.465
5.4800,4.379
5.5200,4.463
5.5600,4.463
5.6000,4.201
5.6400,4.231
5.6800,4.237
5.7200,4.245
5.7600,4.246
5.8000,4.246
5.8400,4.253
5.8800,4.139
5.9200,4.181
5.9600,4.180
6.0000,4.167
6.0400,4.019
6.0800,4.121
6.1200,4.126
6.1600,4.171
6.2000,4.122
6.2400,4.095
6.2800,4.027
6.3200,4.168
6.3600,4.083
6.4000,4.160
6.4400,3.999
6.4800,4.062
6.5200,4.053
6.5600,4.105
6.6000,4.039
6.6400,4.043
6.6800,4.135
6.7200,4.122
6.7600,4.005
6.8000,4.031
6.8400,3.981
6.8800,3.937
6.9200,4.032
6.9600,4.034
7.0000,4.018
7.0400,4.158
7.0800,3.950
7.1200,3.927
7.1600,3.969
7.2000,3.888
7.2400,3.970
7.2800,3.983
7.3200,4.042
7.3600,3.978
7.4000,4.002
7.4400,4.036
7.4800,4.037
7.5200,3.922
7.5600,4.028
7.6000,3.972
7.6400,3.958
7.6800,3.923
7.7200,3.921
7.7600,3.961
7.8000,3.828
7.8400,3.846
7.8800,3.913
7.9200,3.910
7.9600,3.905
8.0000,3.898
8.0400,3.883
8.0800,3.849
8.1200,3.843
8.1600,3.918
8.2000,3.920
8.2400,3.883
8.2800,3.817
8.3200,3.898
8.3600,3.777
8.4000,3.852
8.4400,3.786
8.4800,3.706
8.5200,3.805
8.5600,3.835
8.6000,3.791
8.6400,3.869
8.6800,3.810
8.7200,3.717
8.7600,3.761
8.8000,3.721
8.8400,3.662
8.8800,3.813
8.9200,3.788
8.9600,3.679
9.0000,3.745
9.0400,3.783
9.0800,3.901
9.1200,3.883
9.1600,3.762
9.2000,3.783
9.2400,3.662
9.2800,3.734
9.3200,3.686
9.3600,3.627
9.4000,3.718
9.4400,3.788
9.4800,3.742
9.5200,3.690
9.5600,3.703
9.6000,3.643
9.6400,3.655
9.6800,3.674
9.7200,3.734
9.7600,3.688
9.8000,3.521
9.8400,3.671
9.8800,3.700
9.9200,3.597
9.9600,3.685
10.0000,3.709
10.0400,3.794
10.0800,3.650
10.1200,3.686
10.1600,3.626
10.2000,3.629
10.2400,3.662
10.2800,3.568
10.3200,3.622
10.3600,3.600
10.4000,3.604
10.4400,3.541
10.4800,3.632
10.5200,3.472
10.5600,3.585
10.6000,3.598
10.6400,3.578
10.6800,3.646
10.7200,3.552
10.7600,3.562
10.8000,3.508
10.8400,3.596
10.8800,3.596
10.9200,3.463
10.9600,3.500
11.0000,3.546
11.0400,3.421
11.0800,3.480
11.1200,3.493
11.1600,3.549
11.2000,3.531
11.2400,3.497
11.2800,3.609
11.3200,3.530
11.3600,3.565
11.4000,3.592
11.4400,3.547
11.4800,3.556
11.5200,3.466
11.5600,3.439
11.6000,3.429
11.6400,3.541
11.6800,3.476
11.7200,3.468
11.7600,3.525
11.8000,3.516
11.8400,3.434
11.8800,3.329
11.9200,3.409
11.9600,3.520
12.0000,3.415
12.0400,3.409
12.0800,3.468
12.1200,3.424
12.1600,3.493
12.2000,3.370
12.2400,3.436
12.2800,3.485
12.3200,3.362
12.3600,3.494
12.4000,3.422
12.4400,3.372
12.4800,3.319
12.5200,3.437
12.5600,3.447
12.6000,3.346
12.6400,3.382
12.6800,3.433
12.7200,3.477
12.7600,3.424
12.8000,3.307
12.8400,3.380
12.8800,3.374
12.9200,3.387
12.9600,3.295
13.0000,3.287
13.0400,3.341
13.0800,3.286
13.1200,3.287
13.1600,3.236
13.2000,3.186
13.2400,3.283
13.2800,3.299
13.3200,3.294
13.3600,3.299
13.4000,3.357
13.4400,3.386
13.4800,3.243
13.5200,3.383
13.5600,3.395
13.6000,3.249
13.6400,3.236
13.6800,3.218
13.7200,3.343
13.7600,3.250
13.8000,3.154
13.8400,3.245
13.8800,3.149
13.9200,3.329
13.9600,3.334
14.0000,3.236
14.0400,3.271
14.0800,3.204
14.1200,3.297
14.1600,3.256
14.2000,3.302
14.2400,3.192
14.2800,3.263
14.3200,3.161
14.3600,3.218
14.4000,3.184
14.4400,3.236
14.4800,3.218
14.5200,3.304
14.5600,3.184
14.6000,3.204
14.6400,3.233
14.6800,3.273
14.7200,3.264
14.7600,3.158
14.8000,3.185
14.8400,3.084
14.8800,3.150
14.9200,3.145
14.9600,3.231
15.0000,3.294
15.0400,3.172
15.0800,3.039
15.1200,3.172
15.1600,3.145
15.2000,3.187
15.2400,3.153
15.2800,3.121
15.3200,3.206
15.3600,3.205
15.4000,3.130
15.4400,3.099
15.4800,3.102
15.5200,3.065
15.5600,3.155
15.6000,3.168
15.6400,3.197
15.6800,3.111
15.7200,3.097
15.7600,3.064
15.8000,3.146
15.8400,3.080
15.8800,3.060
15.9200,3.095
15.9600,2.952
16.0000,3.079
16.0400,3.016
16.0800,3.161
16.1200,3.058
16.1600,3.113
16.2000,3.018
16.2400,3.091
16.2800,3.071
16.3200,3.034
16.3600,3.080
16.4000,3.051
16.4400,3.024
16.4800,2.978
16.5200,2.968
16.5600,2.943
16.6000,2.995
16.6400,2.994
16.6800,2.967
16.7200,2.889
16.7600,2.998
16.8000,3.028
16.8400,3.015
16.8800,2.928
16.9200,2.914
16.9600,3.051
17.0000,3.005
17.0400,2.968
17.0800,2.944
17.1200,2.960
17.1600,2.933
17.2000,2.965
17.2400,2.892
17.2800,2.981
17.3200,2.953
17.3600,2.916
17.4000,2.899
17.4400,2.973
17.4800,2.899
17.5200,2.981
17.5600,2.976
17.6000,2.951
17.6400,2.918
17.6800,2.946
17.7200,2.862
17.7600,2.972
17.8000,2.896
17.8400,3.034
17.8800,2.899
17.9200,2.832
17.9600,2.817
18.0000,2.855
18.0400,2.899
18.0800,2.899
18.1200,2.905
18.1600,2.891
18.2000,2.856
18.2400,2.857
18.2800,2.936
18.3200,2.830
18.3600,2.765
18.4000,2.815
18.4400,2.858
18.4800,2.811
18.5200,2.925
18.5600,2.851
18.6000,2.880
18.6400,2.901
18.6800,2.823
18.7200,2.863
18.7600,2.720
18.8000,2.757
18.8400,2.775
18.8800,2.851
18.9200,2.737
18.9600,2.704
19.0000,2.776
19.0400,2.767
19.0800,2.834
19.1200,2.823
19.1600,2.790
19.2000,2.723
19.2400,2.821
19.2800,2.803
19.3200,2.890
19.3600,2.866
19.4000,2.798
19.4400,2.721
19.4800,2.744
19.5200,2.714
19.5600,2.782
19.6000,2.763
19.6400,2.747
19.6800,2.768
19.7200,2.775
19.7600,2.681
19.8000,2.674
19.8400,2.660
19.8800,2.700
19.9200,2.808
19.9600,2.641
20.0000,2.647
20.0400,2.735
20.0800,2.662
20.1200,2.595
20.1600,2.587
20.2000,2.682
20.2400,2.755
20.2800,2.746
20.3200,2.723
20.3600,2.669
20.4000,2.716
20.4400,2.662
20.4800,2.667
20.5200,2.604
20.5600,2.652
20.6000,2.618
20.6400,2.720
20.6800,2.644
20.7200,2.578
20.7600,2.587
20.8000,2.648
20.8400,2.644
20.8800,2.706
20.9200,2.616
20.9600,2.597
21.0000,2.574
21.0400,2.621
21.0800,2.544
21.1200,2.584
21.1600,2.644
21.2000,2.549
21.2400,2.557
21.2800,2.675
21.3200,2.521
21.3600,2.595
21.4000,2.508
21.4400,2.678
21.4800,2.487
21.5200,2.520
21.5600,2.535
21.6000,2.589
21.6400,2.546
21.6800,2.433
21.7200,2.578
21.7600,2.489
21.8000,2.475
21.8400,2.643
21.8800,2.527
21.9200,2.557
21.9600,2.446
22.0000,2.471
22.0400,2.566
22.0800,2.494
22.1200,2.470
22.1600,2.536
22.2000,2.542
22.2400,2.506
22.2800,2.530
22.3200,2.511
22.3600,2.578
22.4000,2.518
22.4400,2.480
22.4800,2.468
22.5200,2.419
22.5600,2.428
22.6000,2.528
22.6400,2.456
22.6800,2.466
22.7200,2.391
22.7600,2.392
22.8000,2.395
22.8400,2.364
22.8800,2.416
22.9200,2.390
22.9600,2.416
23.0000,2.420
23.0400,2.425
23.0800,2.479
23.1200,2.435
23.1600,2.429
23.2000,2.462
23.2400,2.444
23.2800,2.406
23.3200,2.354
23.3600,2.410
23.4000,2.372
23.4400,2.281
23.4800,2.432
23.5200,2.443
23.5600,2.417
23.6000,2.351
23.6400,2.398
23.6800,2.348
23.7200,2.391
23.7600,2.325
23.8000,2.303
23.8400,2.364
23.8800,2.316
23.9200,2.425
23.9600,2.394
24.0000,2.349
24.0400,2.238
24.0800,2.353
24.1200,2.340
24.1600,2.346
24.2000,2.339
24.2400,2.365
24.2800,2.274
24.3200,2.264
24.3600,2.273
24.4000,2.264
24.4400,2.298
24.4800,2.295
24.5200,2.276
24.5600,2.231
24.6000,2.271
24.6400,2.390
24.6800,2.291
24.7200,2.272
24.7600,2.249
24.8000,2.362
24.8400,2.322
24.8800,2.225
24.9200,2.205
24.9600,2.261
25.0000,2.288
25.0400,2.242
25.0800,2.264
25.1200,2.258
25.1600,2.247
25.2000,2.202
25.2400,2.230
25.2800,2.166
25.3200,2.293
25.3600,2.245
25.4000,2.150
25.4400,2.230
25.4800,2.201
25.5200,2.217
25.5600,2.238
25.6000,2.201
25.6400,2.191
25.6800,2.229
25.7200,2.175
25.7600,2.154
25.8000,2.150
25.8400,2.154
25.8800,2.245
25.9200,2.257
25.9600,2.151
26.0000,2.170
26.0400,2.108
26.0800,2.157
26.1200,2.121
26.1600,2.159
26.2000,2.079
26.2400,2.158
26.2800,2.139
26.3200,2.060
26.3600,2.108
26.4000,2.070
26.4400,2.087
26.4800,2.212
26.5200,2.195
26.5600,2.050
26.6000,2.075
26.6400,2.028
26.6800,2.024
26.7200,2.160
26.7600,2.086
26.8000,1.967
26.8400,2.123
26.8800,2.064
26.9200,2.055
26.9600,2.020
27.0000,2.126
27.0400,2.037
27.0800,2.032
27.1200,2.032
27.1600,1.991
27.2000,1.998
27.2400,2.034
27.2800,2.110
27.3200,2.090
27.3600,2.029
27.4000,2.109
27.4400,2.085
27.4800,2.051
27.5200,2.041
27.5600,2.028
27.6000,2.083
27.6400,1.983
27.6800,2.002
27.7200,1.972
27.7600,2.034
27.8000,2.027
27.8400,2.016
27.8800,2.022
27.9200,1.962
27.9600,2.100
28.0000,1.991
28.0400,2.011
28.0800,1.981
28.1200,2.107
28.1600,2.035
28.2000,2.037
28.2400,1.976
28.2800,2.038
28.3200,1.945
28.3600,2.011
28.4000,1.928
28.4400,2.041
28.4800,1.946
28.5200,1.949
28.5600,1.891
28.6000,1.909
28.6400,2.024
28.6800,1.953
28.7200,1.921
28.7600,1.922
28.8000,1.961
28.8400,1.996
28.8800,1.988
28.9200,1.946
28.9600,1.938
29.0000,1.976
29.0400,1.899
29.0800,1.818
29.1200,1.936
29.1600,1.957
29.2000,1.959
29.2400,1.984
29.2800,1.933
29.3200,1.953
29.3600,1.926
29.4000,2.004
29.4400,1.854
29.4800,1.872
29.5200,1.891
29.5600,1.912
29.6000,1.908
29.6400,1.875
29.6800,1.893
29.7200,1.886
29.7600,1.862
29.8000,1.873
29.8400,1.847
29.8800,1.793
29.9200,1.858
29.9600,1.840
30.0000,1.821
30.0400,1.830
30.0800,1.877
30.1200,1.835
30.1600,1.782
30.2000,1.779
30.2400,1.811
30.2800,1.779
30.3200,1.846
30.3600,1.870
30.4000,1.823
30.4400,1.833
30.4800,1.827
30.5200,1.889
30.5600,1.793
30.6000,1.850
30.6400,1.928
30.6800,1.843
30.7200,1.795
30.7600,1.793
30.8000,1.875
30.8400,1.848
30.8800,1.834
30.9200,1.847
30.9600,1.792
31.0000,1.865
31.0400,1.799
31.0800,1.772
31.1200,1.757
31.1600,1.806
31.2000,1.835
31.2400,1.835
31.2800,1.920
31.3200,1.948
31.3600,1.876
31.4000,1.857
31.4400,1.927
31.4800,2.075
31.5200,2.018
31.5600,2.021
31.6000,2.100
31.6400,2.094
31.6800,2.149
31.7200,2.228
31.7600,2.211
31.8000,2.241
31.8400,2.227
31.8800,2.305
31.9200,2.303
31.9600,2.279
32.0000,2.209
32.0400,2.175
32.0800,2.221
32.1200,2.080
32.1600,2.139
32.2000,2.041
32.2400,1.994
32.2800,1.900
32.3200,1.936
32.3600,1.932
32.4000,1.846
32.4400,1.868
32.4800,1.847
32.5200,1.835
32.5600,1.871
32.6000,1.800
32.6400,1.827
32.6800,1.771
32.7200,1.740
32.7600,1.766
32.8000,1.750
32.8400,1.734
32.8800,1.699
32.9200,1.741
32.9600,1.742
33.0000,1.768
33.0400,1.935
33.0800,3.657
33.1200,4.059
33.1600,2.208
33.2000,1.682
33.2400,1.726
33.2800,1.761
33.3200,1.722
33.3600,1.711
33.4000,1.700
33.4400,1.677
33.4800,1.724
33.5200,1.706
33.5600,1.775
33.6000,1.803
33.6400,1.667
33.6800,1.701
33.7200,1.754
33.7600,1.818
33.8000,1.743
33.8400,1.713
33.8800,1.753
33.9200,1.739
33.9600,1.769
34.0000,1.785
34.0400,1.768
34.0800,1.786
34.1200,1.869
34.1600,1.902
34.2000,1.871
34.2400,1.823
34.2800,1.905
34.3200,1.974
34.3600,2.020
34.4000,1.940
34.4400,2.033
34.4800,1.952
34.5200,1.994
34.5600,1.916
34.6000,1.855
34.6400,1.908
34.6800,1.887
34.7200,1.899
34.7600,1.813
34.8000,1.772
34.8400,1.791
34.8800,1.758
34.9200,1.787
34.9600,1.699
35.0000,1.673
35.0400,1.725
35.0800,1.706
35.1200,1.668
35.1600,1.658
35.2000,1.647
35.2400,1.683
35.2800,1.641
35.3200,1.701
35.3600,1.698
35.4000,1.707
35.4400,1.731
35.4800,1.770
35.5200,1.687
35.5600,1.742
35.6000,1.742
35.6400,1.757
35.6800,1.737
35.7200,1.800
35.7600,1.806
35.8000,1.839
35.8400,1.822
35.8800,1.910
35.9200,1.995
35.9600,1.901
36.0000,1.973
36.0400,2.005
36.0800,1.995
36.1200,2.113
36.1600,2.167
36.2000,2.150
36.2400,2.145
36.2800,2.230
36.3200,2.228
36.3600,2.196
36.4000,2.186
36.4400,2.091
36.4800,2.133
36.5200,2.122
36.5600,1.987
36.6000,1.956
36.6400,1.988
36.6800,1.888
36.7200,1.828
36.7600,1.807
36.8000,1.746
36.8400,1.734
36.8800,1.616
36.9200,1.748
36.9600,1.712
37.0000,1.627
37.0400,1.566
37.0800,1.541
37.1200,1.580
37.1600,1.539
37.2000,1.547
37.2400,1.515
37.2800,1.522
37.3200,1.519
37.3600,1.519
37.4000,1.528
37.4400,1.423
37.4800,1.421
37.5200,1.465
37.5600,1.394
37.6000,1.459
37.6400,1.416
37.6800,1.451
37.7200,1.435
37.7600,1.401
37.8000,1.419
37.8400,1.436
37.8800,1.350
37.9200,1.343
37.9600,1.450
38.0000,1.388
38.0400,1.359
38.0800,1.417
38.1200,1.381
38.1600,1.431
38.2000,1.373
38.2400,1.282
38.2800,1.307
38.3200,1.322
38.3600,1.348
38.4000,1.295
38.4400,1.263
38.4800,1.289
38.5200,1.374
38.5600,1.350
38.6000,1.294
38.6400,1.277
38.6800,1.334
38.7200,1.304
38.7600,1.350
38.8000,1.336
38.8400,1.229
38.8800,1.252
38.9200,1.321
38.9600,1.297
39.0000,1.265
39.0400,1.280
39.0800,1.278
39.1200,1.280
39.1600,1.305
39.2000,1.311
39.2400,1.305
39.2800,1.339
39.3200,1.302
39.3600,1.311
39.4000,1.227
39.4400,1.233
39.4800,1.266
39.5200,1.219
39.5600,1.239
39.6000,1.169
39.6400,1.236
39.6800,1.218
39.7200,1.271
39.7600,1.191
39.8000,1.241
39.8400,1.246
39.8800,1.240
39.9200,1.184
39.9600,1.276
40.0000,1.253
40.0400,1.228
40.0800,1.226
40.1200,1.257
40.1600,1.266
40.2000,1.226
40.2400,1.236
40.2800,1.192
40.3200,1.256
40.3600,1.278
40.4000,1.158
40.4400,1.241
40.4800,1.165
40.5200,1.218
40.5600,1.190
40.6000,1.180
40.6400,1.209
40.6800,1.214
40.7200,1.166
40.7600,1.150
40.8000,1.196
40.8400,1.252
40.8800,1.240
40.9200,1.259
40.9600,1.181
41.0000,1.249
41.0400,1.195
41.0800,1.166
41.1200,1.244
41.1600,1.235
41.2000,1.132
41.2400,1.176
41.2800,1.173
41.3200,1.209
41.3600,1.216
41.4000,1.211
41.4400,1.256
41.4800,1.178
41.5200,1.179
41.5600,1.219
41.6000,1.175
41.6400,1.199
41.6800,1.215
41.7200,1.168
41.7600,1.232
41.8000,1.218
41.8400,1.145
41.8800,1.262
41.9200,1.206
41.9600,1.162
42.0000,1.248
42.0400,1.168
42.0800,1.232
42.1200,1.205
42.1600,1.169
42.2000,1.290
42.2400,1.278
42.2800,1.243
42.3200,1.238
42.3600,1.273
42.4000,1.306
42.4400,1.255
42.4800,1.303
42.5200,1.290
42.5600,1.337
42.6000,1.349
42.6400,1.383
42.6800,1.407
42.7200,1.391
42.7600,1.389
42.8000,1.535
42.8400,1.508
42.8800,1.570
42.9200,1.605
42.9600,1.709
43.0000,1.788
43.0400,1.994
43.0800,2.145
43.1200,2.449
43.1600,2.620
43.2000,3.054
43.2400,3.686
43.2800,4.403
43.3200,5.438
43.3600,5.954
43.4000,5.722
43.4400,5.174
43.4800,4.708
43.5200,3.930
43.5600,3.207
43.6000,2.731
43.6400,2.287
43.6800,2.076
43.7200,1.882
43.7600,1.815
43.8000,1.662
43.8400,1.626
43.8800,1.529
43.9200,1.435
43.9600,1.444
44.0000,1.334
44.0400,1.246
44.0800,1.295
44.1200,1.277
44.1600,1.239
44.2000,1.229
44.2400,1.240
44.2800,1.250
44.3200,1.208
44.3600,1.151
44.4000,1.126
44.4400,1.138
44.4800,1.067
44.5200,1.211
44.5600,1.157
44.6000,1.199
44.6400,1.122
44.6800,1.100
44.7200,1.121
44.7600,1.128
44.8000,1.082
44.8400,1.050
44.8800,1.116
44.9200,1.061
44.9600,1.100
45.0000,1.038
45.0400,1.039
45.0800,1.070
45.1200,1.033
45.1600,0.978
45.2000,1.030
45.2400,1.059
45.2800,1.102
45.3200,1.053
45.3600,1.009
45.4000,1.097
45.4400,1.007
45.4800,0.986
45.5200,1.027
45.5600,1.042
45.6000,1.016
45.6400,1.054
45.6800,1.066
45.7200,1.024
45.7600,0.981
45.8000,0.997
45.8400,1.063
45.8800,1.019
45.9200,0.998
45.9600,1.013
46.0000,1.013
46.0400,1.048
46.0800,1.024
46.1200,1.048
46.1600,1.052
46.2000,1.021
46.2400,1.033
46.2800,1.020
46.3200,0.999
46.3600,1.008
46.4000,1.045
46.4400,1.010
46.4800,1.008
46.5200,0.978
46.5600,0.950
46.6000,0.957
46.6400,0.996
46.6800,1.017
46.7200,1.007
46.7600,1.022
46.8000,0.984
46.8400,1.025
46.8800,1.044
46.9200,1.042
46.9600,1.035
47.0000,0.983
47.0400,1.007
47.0800,1.010
47.1200,0.991
47.1600,1.069
47.2000,0.992
47.2400,1.005
47.2800,1.001
47.3200,0.955
47.3600,1.036
47.4000,1.032
47.4400,0.974
47.4800,0.978
47.5200,0.992
47.5600,0.954
47.6000,0.995
47.6400,1.036
47.6800,0.987
47.7200,0.940
47.7600,1.024
47.8000,1.017
47.8400,1.017
47.8800,1.006
47.9200,0.941
47.9600,0.909
48.0000,0.984
48.0400,0.963
48.0800,0.961
48.1200,0.957
48.1600,0.966
48.2000,0.979
48.2400,0.960
48.2800,0.922
48.3200,0.958
48.3600,0.966
48.4000,0.956
48.4400,0.956
48.4800,0.992
48.5200,0.902
48.5600,0.903
48.6000,0.981
48.6400,0.892
48.6800,0.959
48.7200,0.930
48.7600,0.920
48.8000,0.932
48.8400,0.909
48.8800,0.882
48.9200,0.864
48.9600,0.935
49.0000,0.951
49.0400,0.941
49.0800,0.902
49.1200,0.915
49.1600,0.875
49.2000,0.882
49.2400,0.917
49.2800,0.987
49.3200,0.897
49.3600,0.975
49.4000,0.929
49.4400,0.959
49.4800,0.943
49.5200,0.935
49.5600,0.943
49.6000,0.919
49.6400,0.942
49.6800,0.950
49.7200,0.913
49.7600,1.014
49.8000,0.974
49.8400,1.016
49.8800,1.014
49.9200,1.037
49.9600,1.055
50.0000,1.111
50.0400,1.144
50.0800,1.134
50.1200,1.191
50.1600,1.203
50.2000,1.206
50.2400,1.352
50.2800,1.381
50.3200,1.525
50.3600,1.573
50.4000,1.787
50.4400,1.841
50.4800,1.959
50.5200,1.962
50.5600,1.928
50.6000,1.814
50.6400,1.863
50.6800,1.575
50.7200,1.534
50.7600,1.377
50.8000,1.349
50.8400,1.153
50.8800,1.087
50.9200,1.084
50.9600,1.049
51.0000,1.022
51.0400,0.940
51.0800,0.968
51.1200,0.956
51.1600,0.915
51.2000,0.905
51.2400,0.867
51.2800,0.913
51.3200,0.896
51.3600,0.872
51.4000,0.845
51.4400,0.816
51.4800,0.845
51.5200,0.877
51.5600,0.857
51.6000,0.787
51.6400,0.808
51.6800,0.829
51.7200,0.784
51.7600,0.816
51.8000,0.786
51.8400,0.785
51.8800,0.828
51.9200,0.794
51.9600,0.734
52.0000,0.774
52.0400,0.820
52.0800,0.785
52.1200,0.788
52.1600,0.793
52.2000,0.777
52.2400,0.802
52.2800,0.753
52.3200,0.761
52.3600,0.748
52.4000,0.754
52.4400,0.816
52.4800,0.729
52.5200,0.727
52.5600,0.768
52.6000,0.753
52.6400,0.745
52.6800,0.755
52.7200,0.773
52.7600,0.773
52.8000,0.764
52.8400,0.731
52.8800,0.712
52.9200,0.735
52.9600,0.751
53.0000,0.736
53.0400,0.749
53.0800,0.708
53.1200,0.720
53.1600,0.714
53.2000,0.819
53.2400,0.670
53.2800,0.772
53.3200,0.767
53.3600,0.746
53.4000,0.713
53.4400,0.708
53.4800,0.695
53.5200,0.751
53.5600,0.699
53.6000,0.767
53.6400,0.697
53.6800,0.727
53.7200,0.668
53.7600,0.687
53.8000,0.705
53.8400,0.724
53.8800,0.698
53.9200,0.682
53.9600,0.660
54.0000,0.723
54.0400,0.681
54.0800,0.643
54.1200,0.701
54.1600,0.704
54.2000,0.712
54.2400,0.767
54.2800,0.685
54.3200,0.681
54.3600,0.716
54.4000,0.710
54.4400,0.712
54.4800,0.715
54.5200,0.672
54.5600,0.658
54.6000,0.670
54.6400,0.692
54.6800,0.655
54.7200,0.706
54.7600,0.656
54.8000,0.701
54.8400,0.701
54.8800,0.715
54.9200,0.673
54.9600,0.669
55.0000,0.694
55.0400,0.669
55.0800,0.713
55.1200,0.683
55.1600,0.653
55.2000,0.682
55.2400,0.654
55.2800,0.680
55.3200,0.646
55.3600,0.674
55.4000,0.655
55.4400,0.677
55.4800,0.725
55.5200,0.680
55.5600,0.681
55.6000,0.715
55.6400,0.700
55.6800,0.701
55.7200,0.701
55.7600,0.658
55.8000,0.658
55.8400,0.675
55.8800,0.678
55.9200,0.656
55.9600,0.675
56.0000,0.716
56.0400,0.743
56.0800,0.708
56.1200,0.711
56.1600,0.741
56.2000,0.734
56.2400,0.704
56.2800,0.746
56.3200,0.766
56.3600,0.773
56.4000,0.815
56.4400,0.761
56.4800,0.818
56.5200,0.872
56.5600,0.829
56.6000,0.849
56.6400,0.828
56.6800,0.849
56.7200,0.835
56.7600,0.866
56.8000,0.888
56.8400,0.843
56.8800,0.845
56.9200,0.897
56.9600,0.832
57.0000,0.786
57.0400,0.730
57.0800,0.779
57.1200,0.748
57.1600,0.750
57.2000,0.726
57.2400,0.775
57.2800,0.754
57.3200,0.667
57.3600,0.709
57.4000,0.710
57.4400,0.708
57.4800,0.655
57.5200,0.688
57.5600,0.699
57.6000,0.660
57.6400,0.680
57.6800,0.656
57.7200,0.643
57.7600,0.626
57.8000,0.643
57.8400,0.687
57.8800,0.644
57.9200,0.667
57.9600,0.666
58.0000,0.658
58.0400,0.654
58.0800,0.609
58.1200,0.629
58.1600,0.631
58.2000,0.629
58.2400,0.641
58.2800,0.608
58.3200,0.600
58.3600,0.648
58.4000,0.625
58.4400,0.595
58.4800,0.622
58.5200,0.629
58.5600,0.638
58.6000,0.593
58.6400,0.638
58.6800,0.635
58.7200,0.622
58.7600,0.617
58.8000,0.604
58.8400,0.605
58.8800,0.596
58.9200,0.562
58.9600,0.608
59.0000,0.617
59.0400,0.617
59.0800,0.574
59.1200,0.639
59.1600,0.601
59.2000,0.614
59.2400,0.646
59.2800,0.624
59.3200,0.593
59.3600,0.615
59.4000,0.591
59.4400,0.581
59.4800,0.606
59.5200,0.579
59.5600,0.563
59.6000,0.604
59.6400,0.589
59.6800,0.570
59.7200,0.549
59.7600,0.591
59.8000,0.635
59.8400,0.611
59.8800,0.619
59.9200,0.590
59.9600,0.607
60.0000,0.603
60.0400,0.589
60.0800,0.607
60.1200,0.600
60.1600,0.612
60.2000,0.623
60.2400,0.612
60.2800,0.588
60.3200,0.555
60.3600,0.578
60.4000,0.570
60.4400,0.628
60.4800,0.581
60.5200,0.593
60.5600,0.589
60.6000,0.595
60.6400,0.568
60.6800,0.586
60.7200,0.566
60.7600,0.547
60.8000,0.560
60.8400,0.583
60.8800,0.594
60.9200,0.592
60.9600,0.626
61.0000,0.575
61.0400,0.591
61.0800,0.565
61.1200,0.546
61.1600,0.591
61.2000,0.622
61.2400,0.602
61.2800,0.552
61.3200,0.553
61.3600,0.586
61.4000,0.626
61.4400,0.571
61.4800,0.531
61.5200,0.586
61.5600,0.562
61.6000,0.574
61.6400,0.616
61.6800,0.683
61.7200,0.682
61.7600,0.672
61.8000,0.617
61.8400,0.616
61.8800,0.584
61.9200,0.584
61.9600,0.593
62.0000,0.579
62.0400,0.577
62.0800,0.616
62.1200,0.608
62.1600,0.623
62.2000,0.613
62.2400,0.626
62.2800,0.623
62.3200,0.674
62.3600,0.648
62.4000,0.667
