theta,intensity
5.0000,5.289
5.0400,5.324
5.0800,5.099
5.1200,5.116
5.1600,5.061
5.2000,4.928
5.2400,4.959
5.2800,4.890
5.3200,4.845
5.3600,4.771
5.4000,4.685
5.4400,4.612
5.4800,4.489
5.5200,4.421
5.5600,4.308
5.6000,4.410
5.6400,4.465
5.6800,4.308
5.7200,4.447
5.7600,4.310
5.8000,4.288
5.8400,4.241
5.8800,4.340
5.9200,4.371
5.9600,4.297
6.0000,4.223
6.0400,4.229
6.0800,4.240
6.1200,4.252
6.1600,4.138
6.2000,4.269
6.2400,4.321
6.2800,4.185
6.3200,4.167
6.3600,4.211
6.4000,4.110
6.4400,4.102
6.4800,4.127
6.5200,4.193
6.5600,4.108
6.6000,4.099
6.6400,4.124
6.6800,4.240
6.7200,4.148
6.7600,4.171
6.8000,4.134
6.8400,4.060
6.8800,4.181
6.9200,4.058
6.9600,4.068
7.0000,4.051
7.0400,4.015
7.0800,3.992
7.1200,3.943
7.1600,4.073
7.2000,4.080
7.2400,4.019
7.2800,4.000
7.3200,4.056
7.3600,3.924
7.4000,3.969
7.4400,3.979
7.4800,4.053
7.5200,3.895
7.5600,3.837
7.6000,4.111
7.6400,3.983
7.6800,3.937
7.7200,3.926
7.7600,3.903
7.8000,3.986
7.8400,3.983
7.8800,4.017
7.9200,3.957
7.9600,3.990
8.0000,4.026
8.0400,4.014
8.0800,3.874
8.1200,3.870
8.1600,3.987
8.2000,3.931
8.2400,3.941
8.2800,3.880
8.3200,3.882
8.3600,3.991
8.4000,3.802
8.4400,3.913
8.4800,3.923
8.5200,3.784
8.5600,3.831
8.6000,3.861
8.6400,3.716
8.6800,3.903
8.7200,3.774
8.7600,3.739
8.8000,3.776
8.8400,3.830
8.8800,3.793
8.9200,3.782
8.9600,3.787
9.0000,3.736
9.0400,3.811
9.0800,3.770
9.1200,3.752
9.1600,3.826
9.2000,3.740
9.2400,3.849
9.2800,3.751
9.3200,3.921
9.3600,3.780
9.4000,3.792
9.4400,3.683
9.4800,3.662
9.5200,3.773
9.5600,3.681
9.6000,3.824
9.6400,3.789
9.6800,3.686
9.7200,3.660
9.7600,3.866
9.8000,3.703
9.8400,3.722
9.8800,3.689
9.9200,3.700
9.9600,3.669
10.0000,3.637
10.0400,3.608
10.0800,3.712
10.1200,3.728
10.1600,3.643
10.2000,3.584
10.2400,3.623
10.2800,3.710
10.3200,3.688
10.3600,3.660
10.4000,3.640
10.4400,3.603
10.4800,3.614
10.5200,3.620
10.5600,3.682
10.6000,3.624
10.6400,3.668
10.6800,3.493
10.7200,3.661
10.7600,3.568
10.8000,3.575
10.8400,3.641
10.8800,3.518
10.9200,3.586
10.9600,3.571
11.0000,3.561
11.0400,3.567
11.0800,3.558
11.1200,3.431
11.1600,3.567
11.2000,3.558
11.2400,3.565
11.2800,3.488
11.3200,3.491
11.3600,3.427
11.4000,3.532
11.4400,3.544
11.4800,3.523
11.5200,3.421
11.5600,3.464
11.6000,3.485
11.6400,3.576
11.6800,3.513
11.7200,3.390
11.7600,3.406
11.8000,3.512
11.8400,3.505
11.8800,3.484
11.9200,3.630
11.9600,3.507
12.0000,3.417
12.0400,3.375
12.0800,3.473
12.1200,3.442
12.1600,3.513
12.2000,3.387
12.2400,3.423
12.2800,3.524
12.3200,3.416
12.3600,3.376
12.4000,3.389
12.4400,3.345
12.4800,3.421
12.5200,3.425
12.5600,3.468
12.6000,3.393
12.6400,3.368
12.6800,3.344
12.7200,3.367
12.7600,3.487
12.8000,3.399
12.8400,3.406
12.8800,3.446
12.9200,3.392
12.9600,3.389
13.0000,3.468
13.0400,3.395
13.0800,3.360
13.1200,3.462
13.1600,3.301
13.2000,3.375
13.2400,3.392
13.2800,3.316
13.3200,3.334
13.3600,3.344
13.4000,3.323
13.4400,3.353
13.4800,3.230
13.5200,3.204
13.5600,3.374
13.6000,3.274
13.6400,3.371
13.6800,3.406
13.7200,3.317
13.7600,3.271
13.8000,3.272
13.8400,3.291
13.8800,3.360
13.9200,3.349
13.9600,3.247
14.0000,3.312
14.0400,3.258
14.0800,3.232
14.1200,3.321
14.1600,3.256
14.2000,3.318
14.2400,3.190
14.2800,3.235
14.3200,3.306
14.3600,3.297
14.4000,3.211
14.4400,3.114
14.4800,3.277
14.5200,3.229
14.5600,3.214
14.6000,3.300
14.6400,3.242
14.6800,3.186
14.7200,3.266
14.7600,3.143
14.8000,3.158
14.8400,3.204
14.8800,3.227
14.9200,3.170
14.9600,3.171
15.0000,3.292
15.0400,3.164
15.0800,3.055
15.1200,3.161
15.1600,3.161
15.2000,3.167
15.2400,3.103
15.2800,3.103
15.3200,3.160
15.3600,3.117
15.4000,3.098
15.4400,3.064
15.4800,3.112
15.5200,3.147
15.5600,3.101
15.6000,3.032
15.6400,3.185
15.6800,3.120
15.7200,3.150
15.7600,3.165
15.8000,3.126
15.8400,3.103
15.8800,3.076
15.9200,2.967
15.9600,3.057
16.0000,3.069
16.0400,3.074
16.0800,3.061
16.1200,3.014
16.1600,3.071
16.2000,3.148
16.2400,3.037
16.2800,3.054
16.3200,2.991
16.3600,3.047
16.4000,3.062
16.4400,3.097
16.4800,3.041
16.5200,3.075
16.5600,2.972
16.6000,3.041
16.6400,3.030
16.6800,3.018
16.7200,3.054
16.7600,2.906
16.8000,2.925
16.8400,2.974
16.8800,3.021
16.9200,3.047
16.9600,3.019
17.0000,2.998
17.0400,2.882
17.0800,2.952
17.1200,2.988
17.1600,2.968
17.2000,2.879
17.2400,2.932
17.2800,2.853
17.3200,2.863
17.3600,3.014
17.4000,2.976
17.4400,2.918
17.4800,2.888
17.5200,2.973
17.5600,2.981
17.6000,2.915
17.6400,2.816
17.6800,2.971
17.7200,2.903
17.7600,2.937
17.8000,2.897
17.8400,2.932
17.8800,2.892
17.9200,2.893
17.9600,2.943
18.0000,2.938
18.0400,2.882
18.0800,2.774
18.1200,2.860
18.1600,2.935
18.2000,2.848
18.2400,2.812
18.2800,2.865
18.3200,2.878
18.3600,2.779
18.4000,2.853
18.4400,2.916
18.4800,2.869
18.5200,2.825
18.5600,2.852
18.6000,2.887
18.6400,2.816
18.6800,2.851
18.7200,2.835
18.7600,2.905
18.8000,2.708
18.8400,2.826
18.8800,2.880
18.9200,2.830
18.9600,2.804
19.0000,2.730
19.0400,2.754
19.0800,2.749
19.1200,2.806
19.1600,2.740
19.2000,2.741
19.2400,2.896
19.2800,2.782
19.3200,2.725
19.3600,2.768
19.4000,2.703
19.4400,2.744
19.4800,2.764
19.5200,2.709
19.5600,2.715
19.6000,2.721
19.6400,2.841
19.6800,2.762
19.7200,2.750
19.7600,2.738
19.8000,2.632
19.8400,2.685
19.8800,2.667
19.9200,2.653
19.9600,2.679
20.0000,2.759
20.0400,2.735
20.0800,2.656
20.1200,2.715
20.1600,2.685
20.2000,2.745
20.2400,2.640
20.2800,2.704
20.3200,2.676
20.3600,2.738
20.4000,2.676
20.4400,2.664
20.4800,2.676
20.5200,2.692
20.5600,2.646
20.6000,2.671
20.6400,2.579
20.6800,2.589
20.7200,2.532
20.7600,2.667
20.8000,2.568
20.8400,2.648
20.8800,2.572
20.9200,2.570
20.9600,2.597
21.0000,2.646
21.0400,2.641
21.0800,2.559
21.1200,2.607
21.1600,2.641
21.2000,2.604
21.2400,2.627
21.2800,2.516
21.3200,2.525
21.3600,2.570
21.4000,2.570
21.4400,2.620
21.4800,2.663
21.5200,2.585
21.5600,2.579
21.6000,2.589
21.6400,2.588
21.6800,2.530
21.7200,2.569
21.7600,2.567
21.8000,2.547
21.8400,2.522
21.8800,2.503
21.9200,2.611
21.9600,2.543
22.0000,2.494
22.0400,2.474
22.0800,2.528
22.1200,2.554
22.1600,2.497
22.2000,2.366
22.2400,2.519
22.2800,2.464
22.3200,2.482
22.3600,2.471
22.4000,2.478
22.4400,2.489
22.4800,2.566
22.5200,2.397
22.5600,2.464
22.6000,2.441
22.6400,2.453
22.6800,2.483
22.7200,2.376
22.7600,2.414
22.8000,2.457
22.8400,2.384
22.8800,2.360
22.9200,2.413
22.9600,2.455
23.0000,2.430
23.0400,2.544
23.0800,2.470
23.1200,2.423
23.1600,2.406
23.2000,2.372
23.2400,2.384
23.2800,2.314
23.3200,2.427
23.3600,2.431
23.4000,2.412
23.4400,2.248
23.4800,2.382
23.5200,2.348
23.5600,2.324
23.6000,2.414
23.6400,2.331
23.6800,2.336
23.7200,2.432
23.7600,2.341
23.8000,2.390
23.8400,2.382
23.8800,2.335
23.9200,2.365
23.9600,2.373
24.0000,2.297
24.0400,2.408
24.0800,2.281
24.1200,2.354
24.1600,2.363
24.2000,2.331
24.2400,2.267
24.2800,2.239
24.3200,2.274
24.3600,2.317
24.4000,2.299
24.4400,2.391
24.4800,2.362
24.5200,2.242
24.5600,2.374
24.6000,2.267
24.6400,2.204
24.6800,2.271
24.7200,2.332
24.7600,2.252
24.8000,2.334
24.8400,2.234
24.8800,2.229
24.9200,2.253
24.9600,2.287
25.0000,2.236
25.0400,2.261
25.0800,2.189
25.1200,2.269
25.1600,2.249
25.2000,2.196
25.2400,2.260
25.2800,2.182
25.3200,2.291
25.3600,2.214
25.4000,2.205
25.4400,2.272
25.4800,2.117
25.5200,2.268
25.5600,2.184
25.6000,2.203
25.6400,2.224
25.6800,2.131
25.7200,2.206
25.7600,2.211
25.8000,2.210
25.8400,2.195
25.8800,2.182
25.9200,2.210
25.9600,2.180
26.0000,2.140
26.0400,2.098
26.0800,2.186
26.1200,2.121
26.1600,2.110
26.2000,2.131
26.2400,2.172
26.2800,2.128
26.3200,2.156
26.3600,2.143
26.4000,2.125
26.4400,2.114
26.4800,2.067
26.5200,2.105
26.5600,2.069
26.6000,2.149
26.6400,2.067
26.6800,2.096
26.7200,2.074
26.7600,2.004
26.8000,2.021
26.8400,2.109
26.8800,2.028
26.9200,2.118
26.9600,2.075
27.0000,2.169
27.0400,2.029
27.0800,2.130
27.1200,2.121
27.1600,2.037
27.2000,2.083
27.2400,2.020
27.2800,2.032
27.3200,2.094
27.3600,1.980
27.4000,2.067
27.4400,2.082
27.4800,2.000
27.5200,2.032
27.5600,2.075
27.6000,2.035
27.6400,2.073
27.6800,2.008
27.7200,1.984
27.7600,2.074
27.8000,2.036
27.8400,1.976
27.8800,2.055
27.9200,1.918
27.9600,2.016
28.0000,1.955
28.0400,1.977
28.0800,1.956
28.1200,2.005
28.1600,1.998
28.2000,2.043
28.2400,1.991
28.2800,1.958
28.3200,2.040
28.3600,2.054
28.4000,1.968
28.4400,2.049
28.4800,1.981
28.5200,2.010
28.5600,1.973
28.6000,1.924
28.6400,1.939
28.6800,1.910
28.7200,1.987
28.7600,1.960
28.8000,1.952
28.8400,2.018
28.8800,1.896
28.9200,1.927
28.9600,1.928
29.0000,1.973
29.0400,1.942
29.0800,1.909
29.1200,1.928
29.1600,1.882
29.2000,1.909
29.2400,1.901
29.2800,1.912
29.3200,1.888
29.3600,1.882
29.4000,1.925
29.4400,1.905
29.4800,1.926
29.5200,1.897
29.5600,1.930
29.6000,1.895
29.6400,1.872
29.6800,1.911
29.7200,1.939
29.7600,1.896
29.8000,1.909
29.8400,1.867
29.8800,1.880
29.9200,1.872
29.9600,1.859
30.0000,1.885
30.0400,1.880
30.0800,1.911
30.1200,1.855
30.1600,1.783
30.2000,1.863
30.2400,1.820
30.2800,1.859
30.3200,1.883
30.3600,1.958
30.4000,1.900
30.4400,1.848
30.4800,1.829
30.5200,1.845
30.5600,1.798
30.6000,1.913
30.6400,1.801
30.6800,1.812
30.7200,1.881
30.7600,1.882
30.8000,1.932
30.8400,1.929
30.8800,1.950
30.9200,1.892
30.9600,1.896
31.0000,1.899
31.0400,1.936
31.0800,1.969
31.1200,1.952
31.1600,2.012
31.2000,2.060
31.2400,2.071
31.2800,2.100
31.3200,2.200
31.3600,2.280
31.4000,2.251
31.4400,2.435
31.4800,2.519
31.5200,2.678
31.5600,2.810
31.6000,2.931
31.6400,3.083
31.6800,3.287
31.7200,3.371
31.7600,3.549
31.8000,3.723
31.8400,3.697
31.8800,3.849
31.9200,3.764
31.9600,3.560
32.0000,3.447
32.0400,3.218
32.0800,3.029
32.1200,2.897
32.1600,2.776
32.2000,2.659
32.2400,2.444
32.2800,2.367
32.3200,2.340
32.3600,2.199
32.4000,2.127
32.4400,2.125
32.4800,2.079
32.5200,2.001
32.5600,1.985
32.6000,2.033
32.6400,1.939
32.6800,1.934
32.7200,1.876
32.7600,1.841
32.8000,1.890
32.8400,1.820
32.8800,1.765
32.9200,1.862
32.9600,1.887
33.0000,2.546
33.0400,3.585
33.0800,2.746
33.1200,1.883
33.1600,1.882
33.2000,1.798
33.2400,1.758
33.2800,1.794
33.3200,1.747
33.3600,1.847
33.4000,1.813
33.4400,1.794
33.4800,1.822
33.5200,1.778
33.5600,1.865
33.6000,1.833
33.6400,1.822
33.6800,1.839
33.7200,1.770
33.7600,1.925
33.8000,1.904
33.8400,1.993
33.8800,1.981
33.9200,2.070
33.9600,2.088
34.0000,2.137
34.0400,2.265
34.0800,2.159
34.1200,2.329
34.1600,2.481
34.2000,2.650
34.2400,2.630
34.2800,2.771
34.3200,2.849
34.3600,2.870
34.4000,2.938
34.4400,2.847
34.4800,2.867
34.5200,2.909
34.5600,2.657
34.6000,2.661
34.6400,2.550
34.6800,2.446
34.7200,2.364
34.7600,2.273
34.8000,2.285
34.8400,2.138
34.8800,2.121
34.9200,2.100
34.9600,2.055
35.0000,1.977
35.0400,1.944
35.0800,1.957
35.1200,1.945
35.1600,1.958
35.2000,1.866
35.2400,1.882
35.2800,1.922
35.3200,1.955
35.3600,1.855
35.4000,1.919
35.4400,1.929
35.4800,1.963
35.5200,1.990
35.5600,2.040
35.6000,2.021
35.6400,2.167
35.6800,2.148
35.7200,2.149
35.7600,2.319
35.8000,2.395
35.8400,2.474
35.8800,2.613
35.9200,2.852
35.9600,2.858
36.0000,2.967
36.0400,3.213
36.0800,3.398
36.1200,3.431
36.1600,3.706
36.2000,3.777
36.2400,3.911
36.2800,3.864
36.3200,3.997
36.3600,3.902
36.4000,3.784
36.4400,3.678
36.4800,3.712
36.5200,3.498
36.5600,3.326
36.6000,3.043
36.6400,2.879
36.6800,2.777
36.7200,2.514
36.7600,2.384
36.8000,2.288
36.8400,2.201
36.8800,2.099
36.9200,2.047
36.9600,1.985
37.0000,1.957
37.0400,1.943
37.0800,1.815
37.1200,1.862
37.1600,1.766
37.2000,1.774
37.2400,1.743
37.2800,1.691
37.3200,1.746
37.3600,1.821
37.4000,1.777
37.4400,1.889
37.4800,2.001
37.5200,2.147
37.5600,2.310
37.6000,2.349
37.6400,2.565
37.6800,2.700
37.7200,2.803
37.7600,2.874
37.8000,2.973
37.8400,2.847
37.8800,2.733
37.9200,2.581
37.9600,2.353
38.0000,2.246
38.0400,1.960
38.0800,1.869
38.1200,1.810
38.1600,1.651
38.2000,1.653
38.2400,1.588
38.2800,1.533
38.3200,1.523
38.3600,1.507
38.4000,1.441
38.4400,1.419
38.4800,1.398
38.5200,1.496
38.5600,1.395
38.6000,1.347
38.6400,1.352
38.6800,1.400
38.7200,1.364
38.7600,1.444
38.8000,1.363
38.8400,1.387
38.8800,1.328
38.9200,1.288
38.9600,1.368
39.0000,1.327
39.0400,1.343
39.0800,1.272
39.1200,1.262
39.1600,1.349
39.2000,1.266
39.2400,1.329
39.2800,1.318
39.3200,1.313
39.3600,1.291
39.4000,1.242
39.4400,1.285
39.4800,1.315
39.5200,1.265
39.5600,1.337
39.6000,1.292
39.6400,1.292
39.6800,1.310
39.7200,1.284
39.7600,1.254
39.8000,1.303
39.8400,1.306
39.8800,1.290
39.9200,1.264
39.9600,1.305
40.0000,1.312
40.0400,1.260
40.0800,1.244
40.1200,1.248
40.1600,1.281
40.2000,1.266
40.2400,1.224
40.2800,1.274
40.3200,1.244
40.3600,1.273
40.4000,1.262
40.4400,1.266
40.4800,1.243
40.5200,1.284
40.5600,1.212
40.6000,1.203
40.6400,1.244
40.6800,1.219
40.7200,1.249
40.7600,1.206
40.8000,1.261
40.8400,1.273
40.8800,1.237
40.9200,1.194
40.9600,1.226
41.0000,1.211
41.0400,1.249
41.0800,1.232
41.1200,1.193
41.1600,1.233
41.2000,1.205
41.2400,1.203
41.2800,1.231
41.3200,1.305
41.3600,1.257
41.4000,1.261
41.4400,1.246
41.4800,1.268
41.5200,1.260
41.5600,1.306
41.6000,1.265
41.6400,1.342
41.6800,1.433
41.7200,1.530
41.7600,1.570
41.8000,1.659
41.8400,1.833
41.8800,2.038
41.9200,2.309
41.9600,2.476
42.0000,2.611
42.0400,2.713
42.0800,2.534
42.1200,2.378
42.1600,2.265
42.2000,2.058
42.2400,1.864
42.2800,1.689
42.3200,1.631
42.3600,1.512
42.4000,1.435
42.4400,1.391
42.4800,1.351
42.5200,1.370
42.5600,1.374
42.6000,1.386
42.6400,1.314
42.6800,1.375
42.7200,1.370
42.7600,1.384
42.8000,1.477
42.8400,1.483
42.8800,1.485
42.9200,1.632
42.9600,1.814
43.0000,1.949
43.0400,2.173
43.0800,2.447
43.1200,2.810
43.1600,2.934
43.2000,3.465
43.2400,3.880
43.2800,4.419
43.3200,4.770
43.3600,5.333
43.4000,5.691
43.4400,5.927
43.4800,5.897
43.5200,5.706
43.5600,5.274
43.6000,4.729
43.6400,4.231
43.6800,3.661
43.7200,3.179
43.7600,2.583
43.8000,2.278
43.8400,2.102
43.8800,1.859
43.9200,1.662
43.9600,1.552
44.0000,1.443
44.0400,1.449
44.0800,1.352
44.1200,1.314
44.1600,1.280
44.2000,1.229
44.2400,1.186
44.2800,1.189
44.3200,1.153
44.3600,1.181
44.4000,1.169
44.4400,1.076
44.4800,1.094
44.5200,1.130
44.5600,1.102
44.6000,1.046
44.6400,1.068
44.6800,1.067
44.7200,1.088
44.7600,1.031
44.8000,1.090
44.8400,1.110
44.8800,1.057
44.9200,1.048
44.9600,1.073
45.0000,1.008
45.0400,1.055
45.0800,1.060
45.1200,1.061
45.1600,1.039
45.2000,1.063
45.2400,1.045
45.2800,1.017
45.3200,0.993
45.3600,1.042
45.4000,1.012
45.4400,1.006
45.4800,1.006
45.5200,0.994
45.5600,1.022
45.6000,0.981
45.6400,1.011
45.6800,0.984
45.7200,0.982
45.7600,0.979
45.8000,0.976
45.8400,0.970
45.8800,1.057
45.9200,0.983
45.9600,0.972
46.0000,0.945
46.0400,0.991
46.0800,0.976
46.1200,0.943
46.1600,0.994
46.2000,0.999
46.2400,0.995
46.2800,1.030
46.3200,0.983
46.3600,0.979
46.4000,1.007
46.4400,1.003
46.4800,0.963
46.5200,0.998
46.5600,0.998
46.6000,1.023
46.6400,1.031
46.6800,1.043
46.7200,1.021
46.7600,0.999
46.8000,0.976
46.8400,0.966
46.8800,1.043
46.9200,1.047
46.9600,1.012
47.0000,1.032
47.0400,1.050
47.0800,1.035
47.1200,1.008
47.1600,1.039
47.2000,1.082
47.2400,1.124
47.2800,1.095
47.3200,1.068
47.3600,1.076
47.4000,1.098
47.4400,1.144
47.4800,1.099
47.5200,1.110
47.5600,1.099
47.6000,1.114
47.6400,1.077
47.6800,1.158
47.7200,1.102
47.7600,1.102
47.8000,1.139
47.8400,1.056
47.8800,1.103
47.9200,1.106
47.9600,1.098
48.0000,1.059
48.0400,1.041
48.0800,1.068
48.1200,1.059
48.1600,1.027
48.2000,1.024
48.2400,0.960
48.2800,0.956
48.3200,0.952
48.3600,0.961
48.4000,0.946
48.4400,0.923
48.4800,0.904
48.5200,0.927
48.5600,0.941
48.6000,0.873
48.6400,0.975
48.6800,0.926
48.7200,0.905
48.7600,0.901
48.8000,0.862
48.8400,0.930
48.8800,0.839
48.9200,0.879
48.9600,0.877
49.0000,0.896
49.0400,0.834
49.0800,0.907
49.1200,0.855
49.1600,0.855
49.2000,0.850
49.2400,0.838
49.2800,0.890
49.3200,0.861
49.3600,0.871
49.4000,0.870
49.4400,0.825
49.4800,0.842
49.5200,0.824
49.5600,0.889
49.6000,0.858
49.6400,0.826
49.6800,0.812
49.7200,0.788
49.7600,0.795
49.8000,0.844
49.8400,0.814
49.8800,0.826
49.9200,0.768
49.9600,0.829
50.0000,0.821
50.0400,0.842
50.0800,0.859
50.1200,0.806
50.1600,0.832
50.2000,0.785
50.2400,0.831
50.2800,0.844
50.3200,0.804
50.3600,0.799
50.4000,0.775
50.4400,0.814
50.4800,0.826
50.5200,0.796
50.5600,0.788
50.6000,0.779
50.6400,0.805
50.6800,0.786
50.7200,0.759
50.7600,0.772
50.8000,0.757
50.8400,0.769
50.8800,0.838
50.9200,0.783
50.9600,0.780
51.0000,0.762
51.0400,0.788
51.0800,0.771
51.1200,0.816
51.1600,0.778
51.2000,0.767
51.2400,0.734
51.2800,0.759
51.3200,0.770
51.3600,0.736
51.4000,0.755
51.4400,0.803
51.4800,0.777
51.5200,0.733
51.5600,0.806
51.6000,0.718
51.6400,0.722
51.6800,0.757
51.7200,0.790
51.7600,0.743
51.8000,0.751
51.8400,0.760
51.8800,0.715
51.9200,0.703
51.9600,0.726
52.0000,0.781
52.0400,0.712
52.0800,0.747
52.1200,0.745
52.1600,0.743
52.2000,0.727
52.2400,0.705
52.2800,0.776
52.3200,0.777
52.3600,0.780
52.4000,0.709
52.4400,0.756
52.4800,0.700
52.5200,0.759
52.5600,0.740
52.6000,0.691
52.6400,0.704
52.6800,0.699
52.7200,0.770
52.7600,0.710
52.8000,0.725
52.8400,0.786
52.8800,0.695
52.9200,0.733
52.9600,0.697
53.0000,0.677
53.0400,0.690
53.0800,0.690
53.1200,0.714
53.1600,0.777
53.2000,0.708
53.2400,0.717
53.2800,0.686
53.3200,0.704
53.3600,0.706
53.4000,0.720
53.4400,0.717
53.4800,0.752
53.5200,0.720
53.5600,0.744
53.6000,0.672
53.6400,0.696
53.6800,0.685
53.7200,0.666
53.7600,0.721
53.8000,0.687
53.8400,0.699
53.8800,0.725
53.9200,0.668
53.9600,0.703
54.0000,0.734
54.0400,0.677
54.0800,0.715
54.1200,0.650
54.1600,0.681
54.2000,0.729
54.2400,0.688
54.2800,0.692
54.3200,0.709
54.3600,0.715
54.4000,0.703
54.4400,0.700
54.4800,0.666
54.5200,0.724
54.5600,0.691
54.6000,0.699
54.6400,0.692
54.6800,0.705
54.7200,0.646
54.7600,0.721
54.8000,0.717
54.8400,0.690
54.8800,0.707
54.9200,0.659
54.9600,0.707
55.0000,0.692
55.0400,0.727
55.0800,0.708
55.1200,0.689
55.1600,0.663
55.2000,0.706
55.2400,0.683
55.2800,0.696
55.3200,0.739
55.3600,0.719
55.4000,0.708
55.4400,0.718
55.4800,0.736
55.5200,0.702
55.5600,0.704
55.6000,0.661
55.6400,0.714
55.6800,0.740
55.7200,0.674
55.7600,0.721
55.8000,0.737
55.8400,0.774
55.8800,0.698
55.9200,0.731
55.9600,0.783
56.0000,0.793
56.0400,0.777
56.0800,0.814
56.1200,0.805
56.1600,0.834
56.2000,0.899
56.2400,0.909
56.2800,0.872
56.3200,0.984
56.3600,0.972
56.4000,1.065
56.4400,1.056
56.4800,1.108
56.5200,1.152
56.5600,1.122
56.6000,1.167
56.6400,1.198
56.6800,1.250
56.7200,1.190
56.7600,1.188
56.8000,1.157
56.8400,1.225
56.8800,1.160
56.9200,1.103
56.9600,1.076
57.0000,1.055
57.0400,1.050
57.0800,1.049
57.1200,0.977
57.1600,0.944
57.2000,0.907
57.2400,0.908
57.2800,0.869
57.3200,0.864
57.3600,0.858
57.4000,0.898
57.4400,0.838
57.4800,0.839
57.5200,0.953
57.5600,0.864
57.6000,0.992
57.6400,1.024
57.6800,1.056
57.7200,1.062
57.7600,1.067
57.8000,1.072
57.8400,1.038
57.8800,1.037
57.9200,1.016
57.9600,0.991
58.0000,0.931
58.0400,0.885
58.0800,0.808
58.1200,0.839
58.1600,0.807
58.2000,0.768
58.2400,0.712
58.2800,0.724
58.3200,0.710
58.3600,0.718
58.4000,0.740
58.4400,0.663
58.4800,0.703
58.5200,0.642
58.5600,0.652
58.6000,0.665
58.6400,0.632
58.6800,0.687
58.7200,0.651
58.7600,0.626
58.8000,0.639
58.8400,0.610
58.8800,0.628
58.9200,0.608
58.9600,0.628
59.0000,0.639
59.0400,0.622
59.0800,0.642
59.1200,0.648
59.1600,0.607
59.2000,0.585
59.2400,0.578
59.2800,0.640
59.3200,0.618
59.3600,0.599
59.4000,0.630
59.4400,0.612
59.4800,0.651
59.5200,0.659
59.5600,0.609
59.6000,0.586
59.6400,0.613
59.6800,0.602
59.7200,0.622
59.7600,0.627
59.8000,0.639
59.8400,0.572
59.8800,0.610
59.9200,0.622
59.9600,0.586
60.0000,0.610
60.0400,0.609
60.0800,0.583
60.1200,0.607
60.1600,0.600
60.2000,0.630
60.2400,0.573
60.2800,0.521
60.3200,0.628
60.3600,0.610
60.4000,0.611
60.4400,0.553
60.4800,0.584
60.5200,0.600
60.5600,0.552
60.6000,0.563
60.6400,0.570
60.6800,0.585
60.7200,0.573
60.7600,0.560
60.8000,0.555
60.8400,0.621
60.8800,0.582
60.9200,0.552
60.9600,0.624
61.0000,0.548
61.0400,0.578
61.0800,0.595
61.1200,0.554
61.1600,0.552
61.2000,0.534
61.2400,0.541
61.2800,0.556
61.3200,0.590
61.3600,0.585
61.4000,0.636
61.4400,0.623
61.4800,0.611
61.5200,0.637
61.5600,0.578
61.6000,0.621
61.6400,0.677
61.6800,0.721
61.7200,0.713
61.7600,0.652
61.8000,0.610
61.8400,0.626
61.8800,0.632
61.9200,0.604
61.9600,0.656
62.0000,0.683
62.0400,0.681
62.0800,0.639
62.1200,0.675
62.1600,0.662
62.2000,0.670
62.2400,0.662
62.2800,0.677
62.3200,0.702
62.3600,0.730
62.4000,0.718
