theta,intensity
5.0000,5.867
5.0400,5.926
5.0800,5.838
5.1200,5.853
5.1600,5.612
5.2000,5.611
5.2400,5.517
5.2800,5.376
5.3200,5.234
5.3600,5.255
5.4000,5.088
5.4400,5.092
5.4800,5.043
5.5200,4.895
5.5600,4.764
5.6000,4.847
5.6400,4.667
5.6800,4.576
5.7200,4.534
5.7600,4.562
5.8000,4.498
5.8400,4.391
5.8800,4.387
5.9200,4.400
5.9600,4.313
6.0000,4.359
6.0400,4.435
6.0800,4.339
6.1200,4.265
6.1600,4.251
6.2000,4.382
6.2400,4.233
6.2800,4.202
6.3200,4.201
6.3600,4.219
6.4000,4.207
6.4400,4.251
6.4800,4.145
6.5200,4.214
6.5600,4.238
6.6000,4.293
6.6400,4.246
6.6800,4.144
6.7200,4.082
6.7600,4.185
6.8000,4.239
6.8400,4.134
6.8800,4.143
6.9200,4.076
6.9600,4.116
7.0000,4.115
7.0400,4.120
7.0800,4.127
7.1200,4.012
7.1600,4.021
7.2000,3.998
7.2400,4.096
7.2800,4.036
7.3200,3.998
7.3600,4.068
7.4000,4.057
7.4400,4.055
7.4800,4.040
7.5200,4.057
7.5600,3.967
7.6000,4.072
7.6400,3.923
7.6800,3.941
7.7200,4.051
7.7600,4.084
7.8000,4.123
7.8400,3.923
7.8800,3.845
7.9200,3.910
7.9600,4.029
8.0000,4.015
8.0400,4.020
8.0800,3.968
8.1200,3.942
8.1600,3.842
8.2000,3.861
8.2400,3.826
8.2800,3.864
8.3200,3.784
8.3600,3.822
8.4000,3.900
8.4400,3.908
8.4800,3.933
8.5200,3.805
8.5600,3.829
8.6000,3.775
8.6400,3.831
8.6800,3.846
8.7200,3.787
8.7600,3.904
8.8000,3.976
8.8400,3.803
8.8800,3.730
8.9200,3.871
8.9600,3.791
9.0000,3.719
9.0400,3.841
9.0800,3.835
9.1200,3.867
9.1600,3.852
9.2000,3.794
9.2400,3.735
9.2800,3.815
9.3200,3.753
9.3600,3.738
9.4000,3.818
9.4400,3.773
9.4800,3.758
9.5200,3.751
9.5600,3.778
9.6000,3.752
9.6400,3.662
9.6800,3.661
9.7200,3.726
9.7600,3.660
9.8000,3.719
9.8400,3.674
9.8800,3.787
9.9200,3.789
9.9600,3.626
10.0000,3.768
10.0400,3.602
10.0800,3.663
10.1200,3.744
10.1600,3.761
10.2000,3.626
10.2400,3.672
10.2800,3.637
10.3200,3.734
10.3600,3.699
10.4000,3.620
10.4400,3.613
10.4800,3.692
10.5200,3.699
10.5600,3.602
10.6000,3.657
10.6400,3.636
10.6800,3.590
10.7200,3.542
10.7600,3.563
10.8000,3.697
10.8400,3.532
10.8800,3.560
10.9200,3.530
10.9600,3.622
11.0000,3.618
11.0400,3.534
11.0800,3.618
11.1200,3.581
11.1600,3.590
11.2000,3.563
11.2400,3.558
11.2800,3.560
11.3200,3.574
11.3600,3.485
11.4000,3.614
11.4400,3.597
11.4800,3.513
11.5200,3.541
11.5600,3.427
11.6000,3.522
11.6400,3.641
11.6800,3.529
11.7200,3.572
11.7600,3.627
11.8000,3.637
11.8400,3.597
11.8800,3.462
11.9200,3.520
11.9600,3.480
12.0000,3.577
12.0400,3.544
12.0800,3.450
12.1200,3.468
12.1600,3.484
12.2000,3.419
12.2400,3.402
12.2800,3.542
12.3200,3.517
12.3600,3.315
12.4000,3.430
12.4400,3.465
12.4800,3.478
12.5200,3.414
12.5600,3.406
12.6000,3.482
12.6400,3.373
12.6800,3.446
12.7200,3.470
12.7600,3.362
12.8000,3.412
12.8400,3.416
12.8800,3.460
12.9200,3.395
12.9600,3.381
13.0000,3.451
13.0400,3.427
13.0800,3.434
13.1200,3.440
13.1600,3.362
13.2000,3.316
13.2400,3.313
13.2800,3.382
13.3200,3.364
13.3600,3.451
13.4000,3.335
13.4400,3.352
13.4800,3.324
13.5200,3.306
13.5600,3.297
13.6000,3.324
13.6400,3.357
13.6800,3.343
13.7200,3.284
13.7600,3.372
13.8000,3.388
13.8400,3.292
13.8800,3.319
13.9200,3.219
13.9600,3.223
14.0000,3.196
14.0400,3.325
14.0800,3.364
14.1200,3.322
14.1600,3.344
14.2000,3.323
14.2400,3.332
14.2800,3.259
14.3200,3.197
14.3600,3.282
14.4000,3.306
14.4400,3.300
14.4800,3.309
14.5200,3.150
14.5600,3.174
14.6000,3.250
14.6400,3.254
14.6800,3.222
14.7200,3.200
14.7600,3.211
14.8000,3.181
14.8400,3.183
14.8800,3.219
14.9200,3.209
14.9600,3.158
15.0000,3.233
15.0400,3.269
15.0800,3.254
15.1200,3.240
15.1600,3.138
15.2000,3.240
15.2400,3.048
15.2800,3.165
15.3200,3.265
15.3600,3.221
15.4000,3.129
15.4400,3.197
15.4800,3.132
15.5200,3.193
15.5600,3.137
15.6000,3.062
15.6400,3.112
15.6800,3.083
15.7200,3.141
15.7600,3.021
15.8000,3.040
15.8400,3.218
15.8800,3.178
15.9200,3.208
15.9600,3.035
16.0000,3.076
16.0400,3.065
16.0800,3.095
16.1200,3.066
16.1600,3.145
16.2000,3.008
16.2400,3.049
16.2800,3.042
16.3200,2.967
16.3600,3.094
16.4000,3.061
16.4400,3.013
16.4800,3.120
16.5200,3.097
16.5600,3.106
16.6000,3.047
16.6400,2.995
16.6800,3.012
16.7200,3.076
16.7600,3.017
16.8000,3.031
16.8400,2.959
16.8800,3.029
16.9200,3.029
16.9600,3.031
17.0000,3.104
17.0400,2.960
17.0800,3.053
17.1200,3.083
17.1600,3.006
17.2000,2.999
17.2400,2.962
17.2800,2.962
17.3200,2.996
17.3600,3.077
17.4000,3.006
17.4400,2.932
17.4800,2.929
17.5200,2.950
17.5600,2.987
17.6000,2.978
17.6400,2.980
17.6800,3.024
17.7200,2.950
17.7600,2.891
17.8000,2.920
17.8400,2.933
17.8800,2.929
17.9200,2.890
17.9600,2.935
18.0000,2.921
18.0400,2.841
18.0800,2.885
18.1200,2.875
18.1600,2.844
18.2000,2.938
18.2400,2.870
18.2800,2.858
18.3200,2.849
18.3600,2.828
18.4000,2.804
18.4400,2.760
18.4800,2.871
18.5200,2.850
18.5600,2.805
18.6000,2.834
18.6400,2.814
18.6800,2.920
18.7200,2.833
18.7600,2.851
18.8000,2.850
18.8400,2.762
18.8800,2.796
18.9200,2.795
18.9600,2.871
19.0000,2.730
19.0400,2.800
19.0800,2.709
19.1200,2.773
19.1600,2.744
19.2000,2.853
19.2400,2.817
19.2800,2.757
19.3200,2.740
19.3600,2.805
19.4000,2.726
19.4400,2.793
19.4800,2.793
19.5200,2.857
19.5600,2.744
19.6000,2.739
19.6400,2.711
19.6800,2.689
19.7200,2.763
19.7600,2.791
19.8000,2.725
19.8400,2.756
19.8800,2.828
19.9200,2.788
19.9600,2.659
20.0000,2.724
20.0400,2.695
20.0800,2.749
20.1200,2.792
20.1600,2.647
20.2000,2.734
20.2400,2.705
20.2800,2.677
20.3200,2.705
20.3600,2.633
20.4000,2.647
20.4400,2.677
20.4800,2.743
20.5200,2.737
20.5600,2.685
20.6000,2.701
20.6400,2.618
20.6800,2.693
20.7200,2.566
20.7600,2.670
20.8000,2.647
20.8400,2.691
20.8800,2.600
20.9200,2.577
20.9600,2.651
21.0000,2.622
21.0400,2.677
21.0800,2.591
21.1200,2.577
21.1600,2.623
21.2000,2.570
21.2400,2.626
21.2800,2.633
21.3200,2.499
21.3600,2.566
21.4000,2.570
21.4400,2.452
21.4800,2.514
21.5200,2.588
21.5600,2.492
21.6000,2.559
21.6400,2.595
21.6800,2.621
21.7200,2.566
21.7600,2.585
21.8000,2.565
21.8400,2.561
21.8800,2.550
21.9200,2.530
21.9600,2.513
22.0000,2.517
22.0400,2.484
22.0800,2.562
22.1200,2.552
22.1600,2.558
22.2000,2.495
22.2400,2.600
22.2800,2.444
22.3200,2.565
22.3600,2.466
22.4000,2.437
22.4400,2.500
22.4800,2.541
22.5200,2.532
22.5600,2.429
22.6000,2.504
22.6400,2.376
22.6800,2.436
22.7200,2.395
22.7600,2.423
22.8000,2.526
22.8400,2.416
22.8800,2.483
22.9200,2.413
22.9600,2.438
23.0000,2.489
23.0400,2.345
23.0800,2.381
23.1200,2.370
23.1600,2.399
23.2000,2.408
23.2400,2.422
23.2800,2.498
23.3200,2.415
23.3600,2.385
23.4000,2.404
23.4400,2.381
23.4800,2.405
23.5200,2.413
23.5600,2.399
23.6000,2.379
23.6400,2.406
23.6800,2.308
23.7200,2.475
23.7600,2.326
23.8000,2.320
23.8400,2.338
23.8800,2.387
23.9200,2.388
23.9600,2.354
24.0000,2.401
24.0400,2.264
24.0800,2.332
24.1200,2.277
24.1600,2.288
24.2000,2.322
24.2400,2.330
24.2800,2.301
24.3200,2.428
24.3600,2.309
24.4000,2.299
24.4400,2.281
24.4800,2.309
24.5200,2.312
24.5600,2.294
24.6000,2.321
24.6400,2.276
24.6800,2.211
24.7200,2.211
24.7600,2.307
24.8000,2.268
24.8400,2.230
24.8800,2.324
24.9200,2.290
24.9600,2.301
25.0000,2.276
25.0400,2.231
25.0800,2.254
25.1200,2.261
25.1600,2.233
25.2000,2.206
25.2400,2.270
25.2800,2.186
25.3200,2.142
25.3600,2.290
25.4000,2.264
25.4400,2.217
25.4800,2.204
25.5200,2.199
25.5600,2.171
25.6000,2.200
25.6400,2.196
25.6800,2.215
25.7200,2.133
25.7600,2.193
25.8000,2.148
25.8400,2.178
25.8800,2.178
25.9200,2.119
25.9600,2.163
26.0000,2.159
26.0400,2.196
26.0800,2.195
26.1200,2.164
26.1600,2.159
26.2000,2.168
26.2400,2.078
26.2800,2.160
26.3200,2.200
26.3600,2.071
26.4000,2.165
26.4400,2.142
26.4800,2.090
26.5200,2.134
26.5600,2.080
26.6000,2.099
26.6400,2.191
26.6800,2.109
26.7200,2.117
26.7600,2.131
26.8000,2.103
26.8400,2.037
26.8800,2.160
26.9200,2.139
26.9600,2.086
27.0000,2.035
27.0400,2.047
27.0800,2.129
27.1200,2.066
27.1600,2.075
27.2000,2.126
27.2400,2.099
27.2800,2.079
27.3200,2.044
27.3600,2.127
27.4000,2.047
27.4400,2.017
27.4800,2.114
27.5200,2.004
27.5600,2.058
27.6000,2.006
27.6400,1.977
27.6800,2.017
27.7200,1.932
27.7600,1.984
27.8000,2.003
27.8400,2.019
27.8800,2.090
27.9200,2.085
27.9600,2.031
28.0000,2.086
28.0400,2.014
28.0800,1.939
28.1200,1.977
28.1600,2.064
28.2000,2.019
28.2400,1.983
28.2800,1.961
28.3200,2.025
28.3600,1.970
28.4000,1.965
28.4400,1.949
28.4800,1.971
28.5200,2.027
28.5600,1.992
28.6000,1.933
28.6400,2.005
28.6800,1.991
28.7200,1.872
28.7600,1.959
28.8000,1.908
28.8400,1.978
28.8800,1.943
28.9200,1.994
28.9600,1.988
29.0000,1.998
29.0400,1.923
29.0800,1.895
29.1200,1.975
29.1600,1.877
29.2000,1.875
29.2400,1.867
29.2800,1.899
29.3200,1.867
29.3600,1.854
29.4000,1.879
29.4400,1.878
29.4800,1.938
29.5200,1.853
29.5600,1.829
29.6000,1.768
29.6400,1.828
29.6800,1.849
29.7200,1.865
29.7600,1.916
29.8000,1.859
29.8400,1.861
29.8800,1.816
29.9200,1.866
29.9600,1.931
30.0000,1.865
30.0400,1.911
30.0800,1.865
30.1200,1.846
30.1600,1.881
30.2000,1.841
30.2400,1.788
30.2800,1.809
30.3200,1.854
30.3600,1.740
30.4000,1.837
30.4400,1.839
30.4800,1.829
30.5200,1.848
30.5600,1.880
30.6000,1.856
30.6400,1.838
30.6800,1.780
30.7200,1.711
30.7600,1.802
30.8000,1.766
30.8400,1.808
30.8800,1.823
30.9200,1.771
30.9600,1.755
31.0000,1.756
31.0400,1.806
31.0800,1.714
31.1200,1.764
31.1600,1.745
31.2000,1.707
31.2400,1.769
31.2800,1.755
31.3200,1.795
31.3600,1.768
31.4000,1.759
31.4400,1.779
31.4800,1.782
31.5200,1.752
31.5600,1.748
31.6000,1.763
31.6400,1.683
31.6800,1.695
31.7200,1.639
31.7600,1.709
31.8000,1.740
31.8400,1.741
31.8800,1.647
31.9200,1.606
31.9600,1.684
32.0000,1.720
32.0400,1.727
32.0800,1.668
32.1200,1.711
32.1600,1.656
32.2000,1.672
32.2400,1.685
32.2800,1.709
32.3200,1.698
32.3600,1.723
32.4000,1.765
32.4400,1.712
32.4800,1.638
32.5200,1.645
32.5600,1.595
32.6000,1.610
32.6400,1.630
32.6800,1.636
32.7200,1.598
32.7600,1.606
32.8000,1.614
32.8400,1.612
32.8800,1.638
32.9200,1.619
32.9600,1.659
33.0000,1.891
33.0400,1.894
33.0800,1.680
33.1200,1.610
33.1600,1.610
33.2000,1.625
33.2400,1.569
33.2800,1.628
33.3200,1.630
33.3600,1.648
33.4000,1.583
33.4400,1.594
33.4800,1.598
33.5200,1.595
33.5600,1.630
33.6000,1.601
33.6400,1.617
33.6800,1.623
33.7200,1.548
33.7600,1.563
33.8000,1.605
33.8400,1.588
33.8800,1.510
33.9200,1.493
33.9600,1.565
34.0000,1.522
34.0400,1.548
34.0800,1.585
34.1200,1.557
34.1600,1.518
34.2000,1.589
34.2400,1.536
34.2800,1.540
34.3200,1.511
34.3600,1.510
34.4000,1.550
34.4400,1.548
34.4800,1.572
34.5200,1.466
34.5600,1.559
34.6000,1.526
34.6400,1.477
34.6800,1.518
34.7200,1.512
34.7600,1.549
34.8000,1.513
34.8400,1.475
34.8800,1.475
34.9200,1.510
34.9600,1.477
35.0000,1.465
35.0400,1.489
35.0800,1.566
35.1200,1.503
35.1600,1.595
35.2000,1.434
35.2400,1.437
35.2800,1.500
35.3200,1.426
35.3600,1.460
35.4000,1.514
35.4400,1.434
35.4800,1.396
35.5200,1.414
35.5600,1.450
35.6000,1.474
35.6400,1.465
35.6800,1.421
35.7200,1.468
35.7600,1.419
35.8000,1.358
35.8400,1.422
35.8800,1.497
35.9200,1.406
35.9600,1.466
36.0000,1.438
36.0400,1.399
36.0800,1.392
36.1200,1.393
36.1600,1.412
36.2000,1.428
36.2400,1.422
36.2800,1.409
36.3200,1.391
36.3600,1.440
36.4000,1.327
36.4400,1.429
36.4800,1.439
36.5200,1.373
36.5600,1.427
36.6000,1.418
36.6400,1.414
36.6800,1.410
36.7200,1.425
36.7600,1.369
36.8000,1.372
36.8400,1.372
36.8800,1.464
36.9200,1.352
36.9600,1.353
37.0000,1.398
37.0400,1.402
37.0800,1.402
37.1200,1.390
37.1600,1.420
37.2000,1.375
37.2400,1.381
37.2800,1.348
37.3200,1.347
37.3600,1.412
37.4000,1.381
37.4400,1.315
37.4800,1.368
37.5200,1.365
37.5600,1.314
37.6000,1.272
37.6400,1.311
37.6800,1.279
37.7200,1.292
37.7600,1.308
37.8000,1.319
37.8400,1.317
37.8800,1.410
37.9200,1.318
37.9600,1.347
38.0000,1.337
38.0400,1.297
38.0800,1.289
38.1200,1.254
38.1600,1.273
38.2000,1.339
38.2400,1.338
38.2800,1.306
38.3200,1.300
38.3600,1.300
38.4000,1.362
38.4400,1.348
38.4800,1.429
38.5200,1.278
38.5600,1.336
38.6000,1.353
38.6400,1.358
38.6800,1.352
38.7200,1.298
38.7600,1.361
38.8000,1.310
38.8400,1.334
38.8800,1.327
38.9200,1.314
38.9600,1.331
39.0000,1.314
39.0400,1.292
39.0800,1.341
39.1200,1.342
39.1600,1.316
39.2000,1.371
39.2400,1.332
39.2800,1.365
39.3200,1.418
39.3600,1.413
39.4000,1.372
39.4400,1.433
39.4800,1.456
39.5200,1.411
39.5600,1.472
39.6000,1.498
39.6400,1.489
39.6800,1.572
39.7200,1.636
39.7600,1.703
39.8000,1.865
39.8400,1.772
39.8800,2.015
39.9200,2.096
39.9600,2.327
40.0000,2.530
40.0400,2.784
40.0800,3.064
40.1200,3.408
40.1600,3.287
40.2000,3.511
40.2400,3.496
40.2800,3.256
40.3200,3.100
40.3600,2.814
40.4000,2.712
40.4400,2.383
40.4800,2.222
40.5200,2.103
40.5600,2.026
40.6000,1.899
40.6400,1.840
40.6800,1.747
40.7200,1.696
40.7600,1.668
40.8000,1.587
40.8400,1.556
40.8800,1.587
40.9200,1.657
40.9600,1.547
41.0000,1.518
41.0400,1.504
41.0800,1.467
41.1200,1.478
41.1600,1.469
41.2000,1.480
41.2400,1.556
41.2800,1.500
41.3200,1.461
41.3600,1.466
41.4000,1.391
41.4400,1.390
41.4800,1.504
41.5200,1.377
41.5600,1.365
41.6000,1.367
41.6400,1.398
41.6800,1.285
41.7200,1.350
41.7600,1.356
41.8000,1.401
41.8400,1.320
41.8800,1.309
41.9200,1.235
41.9600,1.319
42.0000,1.358
42.0400,1.307
42.0800,1.288
42.1200,1.176
42.1600,1.289
42.2000,1.239
42.2400,1.252
42.2800,1.204
42.3200,1.218
42.3600,1.218
42.4000,1.194
42.4400,1.166
42.4800,1.257
42.5200,1.199
42.5600,1.196
42.6000,1.183
42.6400,1.137
42.6800,1.154
42.7200,1.179
42.7600,1.178
42.8000,1.192
42.8400,1.149
42.8800,1.242
42.9200,1.069
42.9600,1.127
43.0000,1.153
43.0400,1.155
43.0800,1.165
43.1200,1.126
43.1600,1.123
43.2000,1.100
43.2400,1.116
43.2800,1.064
43.3200,1.090
43.3600,1.118
43.4000,1.102
43.4400,1.162
43.4800,1.062
43.5200,1.075
43.5600,1.096
43.6000,1.047
43.6400,1.098
43.6800,1.085
43.7200,1.074
43.7600,1.064
43.8000,1.083
43.8400,1.050
43.8800,1.103
43.9200,1.117
43.9600,1.096
44.0000,1.069
44.0400,1.056
44.0800,1.066
44.1200,1.088
44.1600,1.063
44.2000,1.062
44.2400,1.087
44.2800,1.061
44.3200,1.026
44.3600,1.002
44.4000,1.087
44.4400,1.064
44.4800,1.081
44.5200,1.077
44.5600,1.032
44.6000,1.039
44.6400,1.012
44.6800,1.014
44.7200,0.956
44.7600,1.070
44.8000,1.024
44.8400,0.991
44.8800,1.024
44.9200,0.980
44.9600,1.007
45.0000,1.009
45.0400,1.013
45.0800,1.035
45.1200,0.972
45.1600,1.067
45.2000,0.975
45.2400,0.999
45.2800,1.019
45.3200,1.008
45.3600,0.972
45.4000,0.997
45.4400,0.990
45.4800,1.009
45.5200,1.031
45.5600,1.006
45.6000,0.969
45.6400,1.045
45.6800,0.993
45.7200,1.000
45.7600,1.044
45.8000,0.990
45.8400,1.067
45.8800,1.033
45.9200,1.027
45.9600,1.104
46.0000,1.030
46.0400,1.019
46.0800,1.063
46.1200,1.105
46.1600,1.079
46.2000,1.126
46.2400,1.086
46.2800,1.126
46.3200,1.178
46.3600,1.176
46.4000,1.234
46.4400,1.231
46.4800,1.307
46.5200,1.366
46.5600,1.361
46.6000,1.394
46.6400,1.462
46.6800,1.481
46.7200,1.521
46.7600,1.531
46.8000,1.572
46.8400,1.441
46.8800,1.467
46.9200,1.358
46.9600,1.318
47.0000,1.256
47.0400,1.243
47.0800,1.191
47.1200,1.143
47.1600,1.186
47.2000,1.075
47.2400,1.019
47.2800,1.065
47.3200,1.019
47.3600,0.994
47.4000,0.989
47.4400,0.936
47.4800,0.926
47.5200,0.987
47.5600,0.973
47.6000,0.923
47.6400,0.868
47.6800,0.874
47.7200,0.991
47.7600,0.908
47.8000,0.867
47.8400,0.919
47.8800,0.939
47.9200,0.900
47.9600,0.912
48.0000,0.888
48.0400,0.865
48.0800,0.871
48.1200,0.905
48.1600,0.930
48.2000,0.860
48.2400,0.849
48.2800,0.855
48.3200,0.878
48.3600,0.829
48.4000,0.838
48.4400,0.855
48.4800,0.862
48.5200,0.850
48.5600,0.836
48.6000,0.863
48.6400,0.821
48.6800,0.840
48.7200,0.834
48.7600,0.816
48.8000,0.856
48.8400,0.867
48.8800,0.855
48.9200,0.873
48.9600,0.838
49.0000,0.857
49.0400,0.808
49.0800,0.804
49.1200,0.808
49.1600,0.827
49.2000,0.826
49.2400,0.801
49.2800,0.805
49.3200,0.827
49.3600,0.819
49.4000,0.820
49.4400,0.829
49.4800,0.850
49.5200,0.830
49.5600,0.787
49.6000,0.808
49.6400,0.815
49.6800,0.789
49.7200,0.810
49.7600,0.755
49.8000,0.809
49.8400,0.800
49.8800,0.803
49.9200,0.804
49.9600,0.738
50.0000,0.780
50.0400,0.773
50.0800,0.783
50.1200,0.863
50.1600,0.779
50.2000,0.822
50.2400,0.866
50.2800,0.775
50.3200,0.777
50.3600,0.796
50.4000,0.813
50.4400,0.789
50.4800,0.792
50.5200,0.823
50.5600,0.816
50.6000,0.774
50.6400,0.779
50.6800,0.793
50.7200,0.740
50.7600,0.727
50.8000,0.750
50.8400,0.818
50.8800,0.779
50.9200,0.797
50.9600,0.763
51.0000,0.751
51.0400,0.741
51.0800,0.777
51.1200,0.759
51.1600,0.778
51.2000,0.728
51.2400,0.809
51.2800,0.721
51.3200,0.776
51.3600,0.769
51.4000,0.743
51.4400,0.735
51.4800,0.724
51.5200,0.732
51.5600,0.733
51.6000,0.794
51.6400,0.752
51.6800,0.755
51.7200,0.770
51.7600,0.746
51.8000,0.733
51.8400,0.722
51.8800,0.749
51.9200,0.753
51.9600,0.720
52.0000,0.756
52.0400,0.754
52.0800,0.736
52.1200,0.756
52.1600,0.747
52.2000,0.767
52.2400,0.748
52.2800,0.758
52.3200,0.737
52.3600,0.693
52.4000,0.716
52.4400,0.686
52.4800,0.725
52.5200,0.748
52.5600,0.674
52.6000,0.703
52.6400,0.716
52.6800,0.717
52.7200,0.714
52.7600,0.712
52.8000,0.721
52.8400,0.636
52.8800,0.719
52.9200,0.701
52.9600,0.722
53.0000,0.766
53.0400,0.677
53.0800,0.737
53.1200,0.678
53.1600,0.713
53.2000,0.739
53.2400,0.702
53.2800,0.688
53.3200,0.771
53.3600,0.644
53.4000,0.648
53.4400,0.690
53.4800,0.718
53.5200,0.708
53.5600,0.685
53.6000,0.726
53.6400,0.697
53.6800,0.678
53.7200,0.644
53.7600,0.690
53.8000,0.692
53.8400,0.712
53.8800,0.692
53.9200,0.711
53.9600,0.702
54.0000,0.687
54.0400,0.671
54.0800,0.716
54.1200,0.665
54.1600,0.661
54.2000,0.711
54.2400,0.674
54.2800,0.682
54.3200,0.661
54.3600,0.655
54.4000,0.647
54.4400,0.646
54.4800,0.663
54.5200,0.669
54.5600,0.679
54.6000,0.701
54.6400,0.648
54.6800,0.618
54.7200,0.647
54.7600,0.673
54.8000,0.657
54.8400,0.671
54.8800,0.647
54.9200,0.630
54.9600,0.646
55.0000,0.678
55.0400,0.688
55.0800,0.651
55.1200,0.652
55.1600,0.612
55.2000,0.648
55.2400,0.656
55.2800,0.673
55.3200,0.653
55.3600,0.649
55.4000,0.657
55.4400,0.658
55.4800,0.649
55.5200,0.642
55.5600,0.656
55.6000,0.686
55.6400,0.662
55.6800,0.643
55.7200,0.686
55.7600,0.643
55.8000,0.659
55.8400,0.653
55.8800,0.646
55.9200,0.679
55.9600,0.718
56.0000,0.627
56.0400,0.630
56.0800,0.659
56.1200,0.653
56.1600,0.675
56.2000,0.658
56.2400,0.643
56.2800,0.609
56.3200,0.610
56.3600,0.644
56.4000,0.625
56.4400,0.634
56.4800,0.589
56.5200,0.685
56.5600,0.640
56.6000,0.630
56.6400,0.611
56.6800,0.605
56.7200,0.655
56.7600,0.687
56.8000,0.645
56.8400,0.578
56.8800,0.621
56.9200,0.625
56.9600,0.593
57.0000,0.587
57.0400,0.637
57.0800,0.598
57.1200,0.615
57.1600,0.606
57.2000,0.642
57.2400,0.646
57.2800,0.642
57.3200,0.564
57.3600,0.637
57.4000,0.598
57.4400,0.632
57.4800,0.598
57.5200,0.601
57.5600,0.586
57.6000,0.609
57.6400,0.627
57.6800,0.637
57.7200,0.593
57.7600,0.581
57.8000,0.636
57.8400,0.650
57.8800,0.611
57.9200,0.618
57.9600,0.611
58.0000,0.614
58.0400,0.616
58.0800,0.600
58.1200,0.646
58.1600,0.623
58.2000,0.610
58.2400,0.658
58.2800,0.631
58.3200,0.614
58.3600,0.608
58.4000,0.606
58.4400,0.582
58.4800,0.597
58.5200,0.614
58.5600,0.587
58.6000,0.611
58.6400,0.632
58.6800,0.615
58.7200,0.583
58.7600,0.577
58.8000,0.552
58.8400,0.636
58.8800,0.619
58.9200,0.626
58.9600,0.614
59.0000,0.587
59.0400,0.649
59.0800,0.604
59.1200,0.568
59.1600,0.620
59.2000,0.548
59.2400,0.600
59.2800,0.613
59.3200,0.622
59.3600,0.604
59.4000,0.604
59.4400,0.575
59.4800,0.596
59.5200,0.568
59.5600,0.593
59.6000,0.604
59.6400,0.609
59.6800,0.587
59.7200,0.552
59.7600,0.593
59.8000,0.572
59.8400,0.609
59.8800,0.584
59.9200,0.551
59.9600,0.549
60.0000,0.573
60.0400,0.576
60.0800,0.581
60.1200,0.609
60.1600,0.587
60.2000,0.568
60.2400,0.552
60.2800,0.544
60.3200,0.536
60.3600,0.561
60.4000,0.544
60.4400,0.594
60.4800,0.594
60.5200,0.540
60.5600,0.557
60.6000,0.554
60.6400,0.528
60.6800,0.541
60.7200,0.524
60.7600,0.552
60.8000,0.528
60.8400,0.552
60.8800,0.567
60.9200,0.563
60.9600,0.561
61.0000,0.602
61.0400,0.592
61.0800,0.577
61.1200,0.563
61.1600,0.548
61.2000,0.582
61.2400,0.556
61.2800,0.549
61.3200,0.551
61.3600,0.521
61.4000,0.518
61.4400,0.538
61.4800,0.512
61.5200,0.590
61.5600,0.555
61.6000,0.622
61.6400,0.642
61.6800,0.637
61.7200,0.585
61.7600,0.586
61.8000,0.586
61.8400,0.580
61.8800,0.559
61.9200,0.597
61.9600,0.560
62.0000,0.555
62.0400,0.581
62.0800,0.554
62.1200,0.542
62.1600,0.548
62.2000,0.528
62.2400,0.532
62.2800,0.511
62.3200,0.534
62.3600,0.558
62.4000,0.555
